# HITRAN C2H4 partition-function data
  temp(K)      221111
      1.0  2.96400e+00
      2.0  7.22340e+00
      3.0  1.23164e+01
      4.0  1.81962e+01
      5.0  2.48160e+01
      6.0  3.21289e+01
      7.0  4.00881e+01
      8.0  4.86467e+01
      9.0  5.77579e+01
     10.0  6.73750e+01
     11.0  7.74567e+01
     12.0  8.79847e+01
     13.0  9.89464e+01
     14.0  1.10329e+02
     15.0  1.22120e+02
     16.0  1.34307e+02
     17.0  1.46878e+02
     18.0  1.59821e+02
     19.0  1.73126e+02
     20.0  1.86780e+02
     21.0  2.00773e+02
     22.0  2.15098e+02
     23.0  2.29749e+02
     24.0  2.44719e+02
     25.0  2.60004e+02
     26.0  2.75596e+02
     27.0  2.91489e+02
     28.0  3.07679e+02
     29.0  3.24158e+02
     30.0  3.40920e+02
     31.0  3.57960e+02
     32.0  3.75274e+02
     33.0  3.92859e+02
     34.0  4.10711e+02
     35.0  4.28826e+02
     36.0  4.47201e+02
     37.0  4.65832e+02
     38.0  4.84717e+02
     39.0  5.03850e+02
     40.0  5.23230e+02
     41.0  5.42852e+02
     42.0  5.62714e+02
     43.0  5.82813e+02
     44.0  6.03147e+02
     45.0  6.23713e+02
     46.0  6.44508e+02
     47.0  6.65530e+02
     48.0  6.86776e+02
     49.0  7.08243e+02
     50.0  7.29930e+02
     51.0  7.51833e+02
     52.0  7.73951e+02
     53.0  7.96282e+02
     54.0  8.18824e+02
     55.0  8.41577e+02
     56.0  8.64537e+02
     57.0  8.87705e+02
     58.0  9.11077e+02
     59.0  9.34653e+02
     60.0  9.58430e+02
     61.0  9.82408e+02
     62.0  1.00658e+03
     63.0  1.03096e+03
     64.0  1.05552e+03
     65.0  1.08028e+03
     66.0  1.10523e+03
     67.0  1.13037e+03
     68.0  1.15570e+03
     69.0  1.18121e+03
     70.0  1.20690e+03
     71.0  1.23277e+03
     72.0  1.25883e+03
     73.0  1.28507e+03
     74.0  1.31148e+03
     75.0  1.33807e+03
     76.0  1.36484e+03
     77.0  1.39179e+03
     78.0  1.41892e+03
     79.0  1.44622e+03
     80.0  1.47370e+03
     81.0  1.50135e+03
     82.0  1.52918e+03
     83.0  1.55718e+03
     84.0  1.58535e+03
     85.0  1.61369e+03
     86.0  1.64220e+03
     87.0  1.67088e+03
     88.0  1.69972e+03
     89.0  1.72873e+03
     90.0  1.75790e+03
     91.0  1.78723e+03
     92.0  1.81673e+03
     93.0  1.84638e+03
     94.0  1.87620e+03
     95.0  1.90617e+03
     96.0  1.93630e+03
     97.0  1.96659e+03
     98.0  1.99704e+03
     99.0  2.02764e+03
    100.0  2.05840e+03
    101.0  2.08931e+03
    102.0  2.12038e+03
    103.0  2.15160e+03
    104.0  2.18298e+03
    105.0  2.21450e+03
    106.0  2.24618e+03
    107.0  2.27801e+03
    108.0  2.30999e+03
    109.0  2.34212e+03
    110.0  2.37440e+03
    111.0  2.40683e+03
    112.0  2.43940e+03
    113.0  2.47213e+03
    114.0  2.50500e+03
    115.0  2.53802e+03
    116.0  2.57118e+03
    117.0  2.60449e+03
    118.0  2.63795e+03
    119.0  2.67155e+03
    120.0  2.70530e+03
    121.0  2.73919e+03
    122.0  2.77323e+03
    123.0  2.80740e+03
    124.0  2.84172e+03
    125.0  2.87619e+03
    126.0  2.91079e+03
    127.0  2.94553e+03
    128.0  2.98042e+03
    129.0  3.01544e+03
    130.0  3.05060e+03
    131.0  3.08590e+03
    132.0  3.12133e+03
    133.0  3.15691e+03
    134.0  3.19262e+03
    135.0  3.22847e+03
    136.0  3.26446e+03
    137.0  3.30059e+03
    138.0  3.33685e+03
    139.0  3.37326e+03
    140.0  3.40980e+03
    141.0  3.44648e+03
    142.0  3.48330e+03
    143.0  3.52026e+03
    144.0  3.55736e+03
    145.0  3.59459e+03
    146.0  3.63196e+03
    147.0  3.66947e+03
    148.0  3.70711e+03
    149.0  3.74489e+03
    150.0  3.78280e+03
    151.0  3.82085e+03
    152.0  3.85903e+03
    153.0  3.89735e+03
    154.0  3.93581e+03
    155.0  3.97440e+03
    156.0  4.01313e+03
    157.0  4.05199e+03
    158.0  4.09099e+03
    159.0  4.13013e+03
    160.0  4.16940e+03
    161.0  4.20881e+03
    162.0  4.24836e+03
    163.0  4.28804e+03
    164.0  4.32787e+03
    165.0  4.36783e+03
    166.0  4.40793e+03
    167.0  4.44816e+03
    168.0  4.48854e+03
    169.0  4.52905e+03
    170.0  4.56970e+03
    171.0  4.61049e+03
    172.0  4.65142e+03
    173.0  4.69248e+03
    174.0  4.73369e+03
    175.0  4.77504e+03
    176.0  4.81653e+03
    177.0  4.85816e+03
    178.0  4.89993e+03
    179.0  4.94184e+03
    180.0  4.98390e+03
    181.0  5.02610e+03
    182.0  5.06845e+03
    183.0  5.11093e+03
    184.0  5.15357e+03
    185.0  5.19634e+03
    186.0  5.23926e+03
    187.0  5.28233e+03
    188.0  5.32554e+03
    189.0  5.36890e+03
    190.0  5.41240e+03
    191.0  5.45605e+03
    192.0  5.49984e+03
    193.0  5.54378e+03
    194.0  5.58787e+03
    195.0  5.63211e+03
    196.0  5.67651e+03
    197.0  5.72105e+03
    198.0  5.76574e+03
    199.0  5.81059e+03
    200.0  5.85560e+03
    201.0  5.90076e+03
    202.0  5.94608e+03
    203.0  5.99155e+03
    204.0  6.03719e+03
    205.0  6.08298e+03
    206.0  6.12892e+03
    207.0  6.17503e+03
    208.0  6.22129e+03
    209.0  6.26772e+03
    210.0  6.31430e+03
    211.0  6.36104e+03
    212.0  6.40794e+03
    213.0  6.45501e+03
    214.0  6.50224e+03
    215.0  6.54963e+03
    216.0  6.59719e+03
    217.0  6.64491e+03
    218.0  6.69281e+03
    219.0  6.74087e+03
    220.0  6.78910e+03
    221.0  6.83750e+03
    222.0  6.88608e+03
    223.0  6.93483e+03
    224.0  6.98375e+03
    225.0  7.03285e+03
    226.0  7.08213e+03
    227.0  7.13158e+03
    228.0  7.18121e+03
    229.0  7.23101e+03
    230.0  7.28100e+03
    231.0  7.33117e+03
    232.0  7.38151e+03
    233.0  7.43204e+03
    234.0  7.48276e+03
    235.0  7.53365e+03
    236.0  7.58474e+03
    237.0  7.63602e+03
    238.0  7.68749e+03
    239.0  7.73915e+03
    240.0  7.79100e+03
    241.0  7.84305e+03
    242.0  7.89529e+03
    243.0  7.94774e+03
    244.0  8.00038e+03
    245.0  8.05321e+03
    246.0  8.10625e+03
    247.0  8.15949e+03
    248.0  8.21292e+03
    249.0  8.26656e+03
    250.0  8.32040e+03
    251.0  8.37444e+03
    252.0  8.42869e+03
    253.0  8.48314e+03
    254.0  8.53780e+03
    255.0  8.59266e+03
    256.0  8.64774e+03
    257.0  8.70303e+03
    258.0  8.75854e+03
    259.0  8.81426e+03
    260.0  8.87020e+03
    261.0  8.92636e+03
    262.0  8.98274e+03
    263.0  9.03934e+03
    264.0  9.09617e+03
    265.0  9.15322e+03
    266.0  9.21050e+03
    267.0  9.26800e+03
    268.0  9.32574e+03
    269.0  9.38370e+03
    270.0  9.44190e+03
    271.0  9.50033e+03
    272.0  9.55899e+03
    273.0  9.61790e+03
    274.0  9.67704e+03
    275.0  9.73642e+03
    276.0  9.79604e+03
    277.0  9.85591e+03
    278.0  9.91602e+03
    279.0  9.97639e+03
    280.0  1.00370e+04
    281.0  1.00979e+04
    282.0  1.01590e+04
    283.0  1.02204e+04
    284.0  1.02820e+04
    285.0  1.03438e+04
    286.0  1.04060e+04
    287.0  1.04684e+04
    288.0  1.05310e+04
    289.0  1.05939e+04
    290.0  1.06570e+04
    291.0  1.07204e+04
    292.0  1.07840e+04
    293.0  1.08479e+04
    294.0  1.09121e+04
    295.0  1.09766e+04
    296.0  1.10413e+04
    297.0  1.11063e+04
    298.0  1.11716e+04
    299.0  1.12371e+04
    300.0  1.13030e+04
    301.0  1.13692e+04
    302.0  1.14356e+04
    303.0  1.15024e+04
    304.0  1.15695e+04
    305.0  1.16368e+04
    306.0  1.17045e+04
    307.0  1.17724e+04
    308.0  1.18407e+04
    309.0  1.19092e+04
    310.0  1.19780e+04
    311.0  1.20471e+04
    312.0  1.21165e+04
    313.0  1.21862e+04
    314.0  1.22562e+04
    315.0  1.23265e+04
    316.0  1.23972e+04
    317.0  1.24681e+04
    318.0  1.25394e+04
    319.0  1.26110e+04
    320.0  1.26830e+04
    321.0  1.27553e+04
    322.0  1.28279e+04
    323.0  1.29009e+04
    324.0  1.29742e+04
    325.0  1.30479e+04
    326.0  1.31218e+04
    327.0  1.31961e+04
    328.0  1.32708e+04
    329.0  1.33457e+04
    330.0  1.34210e+04
    331.0  1.34966e+04
    332.0  1.35725e+04
    333.0  1.36488e+04
    334.0  1.37254e+04
    335.0  1.38023e+04
    336.0  1.38795e+04
    337.0  1.39571e+04
    338.0  1.40351e+04
    339.0  1.41134e+04
    340.0  1.41920e+04
    341.0  1.42710e+04
    342.0  1.43504e+04
    343.0  1.44301e+04
    344.0  1.45102e+04
    345.0  1.45907e+04
    346.0  1.46716e+04
    347.0  1.47528e+04
    348.0  1.48345e+04
    349.0  1.49165e+04
    350.0  1.49990e+04
    351.0  1.50819e+04
    352.0  1.51652e+04
    353.0  1.52489e+04
    354.0  1.53330e+04
    355.0  1.54175e+04
    356.0  1.55024e+04
    357.0  1.55877e+04
    358.0  1.56734e+04
    359.0  1.57595e+04
    360.0  1.58460e+04
    361.0  1.59329e+04
    362.0  1.60201e+04
    363.0  1.61078e+04
    364.0  1.61959e+04
    365.0  1.62844e+04
    366.0  1.63733e+04
    367.0  1.64626e+04
    368.0  1.65523e+04
    369.0  1.66424e+04
    370.0  1.67330e+04
    371.0  1.68240e+04
    372.0  1.69155e+04
    373.0  1.70073e+04
    374.0  1.70997e+04
    375.0  1.71924e+04
    376.0  1.72856e+04
    377.0  1.73793e+04
    378.0  1.74734e+04
    379.0  1.75680e+04
    380.0  1.76630e+04
    381.0  1.77585e+04
    382.0  1.78544e+04
    383.0  1.79508e+04
    384.0  1.80477e+04
    385.0  1.81450e+04
    386.0  1.82429e+04
    387.0  1.83412e+04
    388.0  1.84400e+04
    389.0  1.85392e+04
    390.0  1.86390e+04
    391.0  1.87393e+04
    392.0  1.88400e+04
    393.0  1.89413e+04
    394.0  1.90430e+04
    395.0  1.91453e+04
    396.0  1.92480e+04
    397.0  1.93513e+04
    398.0  1.94550e+04
    399.0  1.95593e+04
    400.0  1.96640e+04
    401.0  1.97692e+04
    402.0  1.98750e+04
    403.0  1.99813e+04
    404.0  2.00881e+04
    405.0  2.01954e+04
    406.0  2.03032e+04
    407.0  2.04116e+04
    408.0  2.05205e+04
    409.0  2.06300e+04
    410.0  2.07400e+04
    411.0  2.08506e+04
    412.0  2.09617e+04
    413.0  2.10734e+04
    414.0  2.11857e+04
    415.0  2.12985e+04
    416.0  2.14118e+04
    417.0  2.15258e+04
    418.0  2.16403e+04
    419.0  2.17554e+04
    420.0  2.18710e+04
    421.0  2.19872e+04
    422.0  2.21040e+04
    423.0  2.22213e+04
    424.0  2.23392e+04
    425.0  2.24577e+04
    426.0  2.25768e+04
    427.0  2.26965e+04
    428.0  2.28167e+04
    429.0  2.29376e+04
    430.0  2.30590e+04
    431.0  2.31810e+04
    432.0  2.33036e+04
    433.0  2.34269e+04
    434.0  2.35507e+04
    435.0  2.36752e+04
    436.0  2.38002e+04
    437.0  2.39260e+04
    438.0  2.40523e+04
    439.0  2.41793e+04
    440.0  2.43070e+04
    441.0  2.44353e+04
    442.0  2.45643e+04
    443.0  2.46940e+04
    444.0  2.48243e+04
    445.0  2.49552e+04
    446.0  2.50869e+04
    447.0  2.52192e+04
    448.0  2.53521e+04
    449.0  2.54857e+04
    450.0  2.56200e+04
    451.0  2.57549e+04
    452.0  2.58905e+04
    453.0  2.60268e+04
    454.0  2.61638e+04
    455.0  2.63014e+04
    456.0  2.64397e+04
    457.0  2.65787e+04
    458.0  2.67185e+04
    459.0  2.68589e+04
    460.0  2.70000e+04
    461.0  2.71418e+04
    462.0  2.72844e+04
    463.0  2.74277e+04
    464.0  2.75717e+04
    465.0  2.77164e+04
    466.0  2.78618e+04
    467.0  2.80080e+04
    468.0  2.81549e+04
    469.0  2.83026e+04
    470.0  2.84510e+04
    471.0  2.86001e+04
    472.0  2.87500e+04
    473.0  2.89007e+04
    474.0  2.90521e+04
    475.0  2.92043e+04
    476.0  2.93573e+04
    477.0  2.95110e+04
    478.0  2.96655e+04
    479.0  2.98209e+04
    480.0  2.99770e+04
    481.0  3.01339e+04
    482.0  3.02917e+04
    483.0  3.04502e+04
    484.0  3.06096e+04
    485.0  3.07698e+04
    486.0  3.09308e+04
    487.0  3.10926e+04
    488.0  3.12552e+04
    489.0  3.14187e+04
    490.0  3.15830e+04
    491.0  3.17481e+04
    492.0  3.19141e+04
    493.0  3.20808e+04
    494.0  3.22485e+04
    495.0  3.24169e+04
    496.0  3.25862e+04
    497.0  3.27564e+04
    498.0  3.29274e+04
    499.0  3.30993e+04
    500.0  3.32720e+04
    501.0  3.34456e+04
    502.0  3.36201e+04
    503.0  3.37954e+04
    504.0  3.39716e+04
    505.0  3.41488e+04
    506.0  3.43268e+04
    507.0  3.45057e+04
    508.0  3.46856e+04
    509.0  3.48663e+04
    510.0  3.50480e+04
    511.0  3.52306e+04
    512.0  3.54142e+04
    513.0  3.55987e+04
    514.0  3.57841e+04
    515.0  3.59705e+04
    516.0  3.61579e+04
    517.0  3.63462e+04
    518.0  3.65355e+04
    519.0  3.67258e+04
    520.0  3.69170e+04
    521.0  3.71092e+04
    522.0  3.73024e+04
    523.0  3.74966e+04
    524.0  3.76918e+04
    525.0  3.78880e+04
    526.0  3.80852e+04
    527.0  3.82834e+04
    528.0  3.84826e+04
    529.0  3.86828e+04
    530.0  3.88840e+04
    531.0  3.90862e+04
    532.0  3.92895e+04
    533.0  3.94937e+04
    534.0  3.96990e+04
    535.0  3.99054e+04
    536.0  4.01128e+04
    537.0  4.03212e+04
    538.0  4.05308e+04
    539.0  4.07413e+04
    540.0  4.09530e+04
    541.0  4.11657e+04
    542.0  4.13796e+04
    543.0  4.15945e+04
    544.0  4.18105e+04
    545.0  4.20277e+04
    546.0  4.22459e+04
    547.0  4.24653e+04
    548.0  4.26857e+04
    549.0  4.29073e+04
    550.0  4.31300e+04
    551.0  4.33538e+04
    552.0  4.35788e+04
    553.0  4.38049e+04
    554.0  4.40321e+04
    555.0  4.42605e+04
    556.0  4.44901e+04
    557.0  4.47208e+04
    558.0  4.49527e+04
    559.0  4.51858e+04
    560.0  4.54200e+04
    561.0  4.56554e+04
    562.0  4.58920e+04
    563.0  4.61299e+04
    564.0  4.63689e+04
    565.0  4.66092e+04
    566.0  4.68506e+04
    567.0  4.70934e+04
    568.0  4.73373e+04
    569.0  4.75825e+04
    570.0  4.78290e+04
    571.0  4.80767e+04
    572.0  4.83258e+04
    573.0  4.85760e+04
    574.0  4.88276e+04
    575.0  4.90805e+04
    576.0  4.93346e+04
    577.0  4.95900e+04
    578.0  4.98467e+04
    579.0  5.01047e+04
    580.0  5.03640e+04
    581.0  5.06246e+04
    582.0  5.08865e+04
    583.0  5.11497e+04
    584.0  5.14143e+04
    585.0  5.16802e+04
    586.0  5.19474e+04
    587.0  5.22160e+04
    588.0  5.24859e+04
    589.0  5.27573e+04
    590.0  5.30300e+04
    591.0  5.33041e+04
    592.0  5.35796e+04
    593.0  5.38566e+04
    594.0  5.41349e+04
    595.0  5.44147e+04
    596.0  5.46958e+04
    597.0  5.49785e+04
    598.0  5.52625e+04
    599.0  5.55480e+04
    600.0  5.58350e+04
    601.0  5.61234e+04
    602.0  5.64133e+04
    603.0  5.67047e+04
    604.0  5.69975e+04
    605.0  5.72918e+04
    606.0  5.75877e+04
    607.0  5.78850e+04
    608.0  5.81838e+04
    609.0  5.84841e+04
    610.0  5.87860e+04
    611.0  5.90894e+04
    612.0  5.93943e+04
    613.0  5.97008e+04
    614.0  6.00088e+04
    615.0  6.03184e+04
    616.0  6.06295e+04
    617.0  6.09423e+04
    618.0  6.12566e+04
    619.0  6.15725e+04
    620.0  6.18900e+04
    621.0  6.22091e+04
    622.0  6.25299e+04
    623.0  6.28522e+04
    624.0  6.31762e+04
    625.0  6.35019e+04
    626.0  6.38292e+04
    627.0  6.41581e+04
    628.0  6.44887e+04
    629.0  6.48210e+04
    630.0  6.51550e+04
    631.0  6.54907e+04
    632.0  6.58280e+04
    633.0  6.61671e+04
    634.0  6.65079e+04
    635.0  6.68504e+04
    636.0  6.71946e+04
    637.0  6.75406e+04
    638.0  6.78883e+04
    639.0  6.82378e+04
    640.0  6.85890e+04
    641.0  6.89420e+04
    642.0  6.92968e+04
    643.0  6.96534e+04
    644.0  7.00117e+04
    645.0  7.03719e+04
    646.0  7.07338e+04
    647.0  7.10976e+04
    648.0  7.14633e+04
    649.0  7.18307e+04
    650.0  7.22000e+04
    651.0  7.25711e+04
    652.0  7.29442e+04
    653.0  7.33190e+04
    654.0  7.36958e+04
    655.0  7.40745e+04
    656.0  7.44551e+04
    657.0  7.48376e+04
    658.0  7.52221e+04
    659.0  7.56086e+04
    660.0  7.59970e+04
    661.0  7.63874e+04
    662.0  7.67798e+04
    663.0  7.71742e+04
    664.0  7.75706e+04
    665.0  7.79690e+04
    666.0  7.83694e+04
    667.0  7.87718e+04
    668.0  7.91762e+04
    669.0  7.95826e+04
    670.0  7.99910e+04
    671.0  8.04014e+04
    672.0  8.08139e+04
    673.0  8.12284e+04
    674.0  8.16450e+04
    675.0  8.20637e+04
    676.0  8.24845e+04
    677.0  8.29074e+04
    678.0  8.33324e+04
    679.0  8.37596e+04
    680.0  8.41890e+04
    681.0  8.46206e+04
    682.0  8.50543e+04
    683.0  8.54903e+04
    684.0  8.59285e+04
    685.0  8.63689e+04
    686.0  8.68115e+04
    687.0  8.72563e+04
    688.0  8.77033e+04
    689.0  8.81525e+04
    690.0  8.86040e+04
    691.0  8.90577e+04
    692.0  8.95136e+04
    693.0  8.99718e+04
    694.0  9.04322e+04
    695.0  9.08950e+04
    696.0  9.13601e+04
    697.0  9.18275e+04
    698.0  9.22973e+04
    699.0  9.27694e+04
    700.0  9.32440e+04
    701.0  9.37210e+04
    702.0  9.42004e+04
    703.0  9.46822e+04
    704.0  9.51664e+04
    705.0  9.56531e+04
    706.0  9.61422e+04
    707.0  9.66337e+04
    708.0  9.71277e+04
    709.0  9.76241e+04
    710.0  9.81230e+04
    711.0  9.86243e+04
    712.0  9.91281e+04
    713.0  9.96344e+04
    714.0  1.00143e+05
    715.0  1.00655e+05
    716.0  1.01168e+05
    717.0  1.01685e+05
    718.0  1.02204e+05
    719.0  1.02726e+05
    720.0  1.03250e+05
    721.0  1.03777e+05
    722.0  1.04307e+05
    723.0  1.04839e+05
    724.0  1.05374e+05
    725.0  1.05912e+05
    726.0  1.06452e+05
    727.0  1.06995e+05
    728.0  1.07541e+05
    729.0  1.08089e+05
    730.0  1.08640e+05
    731.0  1.09194e+05
    732.0  1.09750e+05
    733.0  1.10309e+05
    734.0  1.10871e+05
    735.0  1.11435e+05
    736.0  1.12003e+05
    737.0  1.12573e+05
    738.0  1.13146e+05
    739.0  1.13721e+05
    740.0  1.14300e+05
    741.0  1.14882e+05
    742.0  1.15466e+05
    743.0  1.16053e+05
    744.0  1.16644e+05
    745.0  1.17237e+05
    746.0  1.17834e+05
    747.0  1.18433e+05
    748.0  1.19036e+05
    749.0  1.19641e+05
    750.0  1.20250e+05
    751.0  1.20862e+05
    752.0  1.21477e+05
    753.0  1.22095e+05
    754.0  1.22717e+05
    755.0  1.23341e+05
    756.0  1.23969e+05
    757.0  1.24600e+05
    758.0  1.25233e+05
    759.0  1.25870e+05
    760.0  1.26510e+05
    761.0  1.27153e+05
    762.0  1.27799e+05
    763.0  1.28448e+05
    764.0  1.29100e+05
    765.0  1.29755e+05
    766.0  1.30414e+05
    767.0  1.31076e+05
    768.0  1.31740e+05
    769.0  1.32409e+05
    770.0  1.33080e+05
    771.0  1.33755e+05
    772.0  1.34433e+05
    773.0  1.35114e+05
    774.0  1.35799e+05
    775.0  1.36487e+05
    776.0  1.37179e+05
    777.0  1.37874e+05
    778.0  1.38572e+05
    779.0  1.39274e+05
    780.0  1.39980e+05
    781.0  1.40689e+05
    782.0  1.41402e+05
    783.0  1.42118e+05
    784.0  1.42838e+05
    785.0  1.43561e+05
    786.0  1.44288e+05
    787.0  1.45018e+05
    788.0  1.45752e+05
    789.0  1.46489e+05
    790.0  1.47230e+05
    791.0  1.47974e+05
    792.0  1.48722e+05
    793.0  1.49474e+05
    794.0  1.50229e+05
    795.0  1.50988e+05
    796.0  1.51751e+05
    797.0  1.52517e+05
    798.0  1.53288e+05
    799.0  1.54062e+05
    800.0  1.54840e+05
    801.0  1.55622e+05
    802.0  1.56408e+05
    803.0  1.57198e+05
    804.0  1.57992e+05
    805.0  1.58790e+05
    806.0  1.59592e+05
    807.0  1.60398e+05
    808.0  1.61208e+05
    809.0  1.62022e+05
    810.0  1.62840e+05
    811.0  1.63662e+05
    812.0  1.64488e+05
    813.0  1.65318e+05
    814.0  1.66152e+05
    815.0  1.66990e+05
    816.0  1.67832e+05
    817.0  1.68678e+05
    818.0  1.69528e+05
    819.0  1.70382e+05
    820.0  1.71240e+05
    821.0  1.72102e+05
    822.0  1.72968e+05
    823.0  1.73838e+05
    824.0  1.74713e+05
    825.0  1.75591e+05
    826.0  1.76474e+05
    827.0  1.77361e+05
    828.0  1.78253e+05
    829.0  1.79149e+05
    830.0  1.80050e+05
    831.0  1.80955e+05
    832.0  1.81865e+05
    833.0  1.82780e+05
    834.0  1.83699e+05
    835.0  1.84623e+05
    836.0  1.85551e+05
    837.0  1.86484e+05
    838.0  1.87421e+05
    839.0  1.88363e+05
    840.0  1.89310e+05
    841.0  1.90261e+05
    842.0  1.91217e+05
    843.0  1.92177e+05
    844.0  1.93142e+05
    845.0  1.94111e+05
    846.0  1.95086e+05
    847.0  1.96065e+05
    848.0  1.97048e+05
    849.0  1.98037e+05
    850.0  1.99030e+05
    851.0  2.00028e+05
    852.0  2.01031e+05
    853.0  2.02039e+05
    854.0  2.03052e+05
    855.0  2.04069e+05
    856.0  2.05091e+05
    857.0  2.06119e+05
    858.0  2.07151e+05
    859.0  2.08188e+05
    860.0  2.09230e+05
    861.0  2.10277e+05
    862.0  2.11329e+05
    863.0  2.12386e+05
    864.0  2.13448e+05
    865.0  2.14515e+05
    866.0  2.15587e+05
    867.0  2.16665e+05
    868.0  2.17748e+05
    869.0  2.18836e+05
    870.0  2.19930e+05
    871.0  2.21029e+05
    872.0  2.22134e+05
    873.0  2.23245e+05
    874.0  2.24360e+05
    875.0  2.25482e+05
    876.0  2.26608e+05
    877.0  2.27741e+05
    878.0  2.28878e+05
    879.0  2.30021e+05
    880.0  2.31170e+05
    881.0  2.32324e+05
    882.0  2.33483e+05
    883.0  2.34648e+05
    884.0  2.35819e+05
    885.0  2.36995e+05
    886.0  2.38176e+05
    887.0  2.39364e+05
    888.0  2.40557e+05
    889.0  2.41756e+05
    890.0  2.42960e+05
    891.0  2.44170e+05
    892.0  2.45386e+05
    893.0  2.46608e+05
    894.0  2.47836e+05
    895.0  2.49070e+05
    896.0  2.50310e+05
    897.0  2.51556e+05
    898.0  2.52808e+05
    899.0  2.54066e+05
    900.0  2.55330e+05
    901.0  2.56600e+05
    902.0  2.57877e+05
    903.0  2.59159e+05
    904.0  2.60448e+05
    905.0  2.61743e+05
    906.0  2.63044e+05
    907.0  2.64351e+05
    908.0  2.65665e+05
    909.0  2.66984e+05
    910.0  2.68310e+05
    911.0  2.69642e+05
    912.0  2.70980e+05
    913.0  2.72325e+05
    914.0  2.73676e+05
    915.0  2.75034e+05
    916.0  2.76398e+05
    917.0  2.77768e+05
    918.0  2.79145e+05
    919.0  2.80529e+05
    920.0  2.81920e+05
    921.0  2.83317e+05
    922.0  2.84722e+05
    923.0  2.86133e+05
    924.0  2.87551e+05
    925.0  2.88975e+05
    926.0  2.90407e+05
    927.0  2.91845e+05
    928.0  2.93290e+05
    929.0  2.94742e+05
    930.0  2.96200e+05
    931.0  2.97665e+05
    932.0  2.99137e+05
    933.0  3.00616e+05
    934.0  3.02102e+05
    935.0  3.03595e+05
    936.0  3.05096e+05
    937.0  3.06603e+05
    938.0  3.08118e+05
    939.0  3.09640e+05
    940.0  3.11170e+05
    941.0  3.12707e+05
    942.0  3.14252e+05
    943.0  3.15805e+05
    944.0  3.17365e+05
    945.0  3.18932e+05
    946.0  3.20507e+05
    947.0  3.22089e+05
    948.0  3.23679e+05
    949.0  3.25276e+05
    950.0  3.26880e+05
    951.0  3.28492e+05
    952.0  3.30111e+05
    953.0  3.31737e+05
    954.0  3.33371e+05
    955.0  3.35013e+05
    956.0  3.36662e+05
    957.0  3.38320e+05
    958.0  3.39985e+05
    959.0  3.41658e+05
    960.0  3.43340e+05
    961.0  3.45030e+05
    962.0  3.46728e+05
    963.0  3.48434e+05
    964.0  3.50149e+05
    965.0  3.51872e+05
    966.0  3.53603e+05
    967.0  3.55343e+05
    968.0  3.57090e+05
    969.0  3.58846e+05
    970.0  3.60610e+05
    971.0  3.62382e+05
    972.0  3.64163e+05
    973.0  3.65951e+05
    974.0  3.67749e+05
    975.0  3.69554e+05
    976.0  3.71368e+05
    977.0  3.73191e+05
    978.0  3.75022e+05
    979.0  3.76862e+05
    980.0  3.78710e+05
    981.0  3.80567e+05
    982.0  3.82433e+05
    983.0  3.84308e+05
    984.0  3.86191e+05
    985.0  3.88084e+05
    986.0  3.89985e+05
    987.0  3.91895e+05
    988.0  3.93815e+05
    989.0  3.95743e+05
    990.0  3.97680e+05
    991.0  3.99626e+05
    992.0  4.01582e+05
    993.0  4.03546e+05
    994.0  4.05520e+05
    995.0  4.07503e+05
    996.0  4.09495e+05
    997.0  4.11497e+05
    998.0  4.13509e+05
    999.0  4.15529e+05
   1000.0  4.17560e+05
   1001.0  4.19600e+05
   1002.0  4.21650e+05
   1003.0  4.23710e+05
   1004.0  4.25779e+05
   1005.0  4.27858e+05
   1006.0  4.29947e+05
   1007.0  4.32046e+05
   1008.0  4.34154e+05
   1009.0  4.36272e+05
   1010.0  4.38400e+05
   1011.0  4.40538e+05
   1012.0  4.42685e+05
   1013.0  4.44842e+05
   1014.0  4.47010e+05
   1015.0  4.49187e+05
   1016.0  4.51375e+05
   1017.0  4.53573e+05
   1018.0  4.55782e+05
   1019.0  4.58001e+05
   1020.0  4.60230e+05
   1021.0  4.62470e+05
   1022.0  4.64721e+05
   1023.0  4.66982e+05
   1024.0  4.69254e+05
   1025.0  4.71537e+05
   1026.0  4.73830e+05
   1027.0  4.76134e+05
   1028.0  4.78449e+05
   1029.0  4.80774e+05
   1030.0  4.83110e+05
   1031.0  4.85456e+05
   1032.0  4.87814e+05
   1033.0  4.90182e+05
   1034.0  4.92561e+05
   1035.0  4.94951e+05
   1036.0  4.97352e+05
   1037.0  4.99764e+05
   1038.0  5.02188e+05
   1039.0  5.04623e+05
   1040.0  5.07070e+05
   1041.0  5.09528e+05
   1042.0  5.11999e+05
   1043.0  5.14480e+05
   1044.0  5.16974e+05
   1045.0  5.19479e+05
   1046.0  5.21996e+05
   1047.0  5.24524e+05
   1048.0  5.27065e+05
   1049.0  5.29616e+05
   1050.0  5.32180e+05
   1051.0  5.34755e+05
   1052.0  5.37342e+05
   1053.0  5.39941e+05
   1054.0  5.42552e+05
   1055.0  5.45175e+05
   1056.0  5.47809e+05
   1057.0  5.50456e+05
   1058.0  5.53115e+05
   1059.0  5.55786e+05
   1060.0  5.58470e+05
   1061.0  5.61166e+05
   1062.0  5.63874e+05
   1063.0  5.66595e+05
   1064.0  5.69329e+05
   1065.0  5.72075e+05
   1066.0  5.74834e+05
   1067.0  5.77606e+05
   1068.0  5.80391e+05
   1069.0  5.83189e+05
   1070.0  5.86000e+05
   1071.0  5.88824e+05
   1072.0  5.91662e+05
   1073.0  5.94513e+05
   1074.0  5.97377e+05
   1075.0  6.00254e+05
   1076.0  6.03144e+05
   1077.0  6.06048e+05
   1078.0  6.08965e+05
   1079.0  6.11896e+05
   1080.0  6.14840e+05
   1081.0  6.17797e+05
   1082.0  6.20768e+05
   1083.0  6.23753e+05
   1084.0  6.26751e+05
   1085.0  6.29762e+05
   1086.0  6.32788e+05
   1087.0  6.35827e+05
   1088.0  6.38881e+05
   1089.0  6.41948e+05
   1090.0  6.45030e+05
   1091.0  6.48126e+05
   1092.0  6.51236e+05
   1093.0  6.54361e+05
   1094.0  6.57500e+05
   1095.0  6.60653e+05
   1096.0  6.63822e+05
   1097.0  6.67004e+05
   1098.0  6.70201e+05
   1099.0  6.73413e+05
   1100.0  6.76640e+05
   1101.0  6.79881e+05
   1102.0  6.83138e+05
   1103.0  6.86409e+05
   1104.0  6.89695e+05
   1105.0  6.92996e+05
   1106.0  6.96313e+05
   1107.0  6.99644e+05
   1108.0  7.02991e+05
   1109.0  7.06353e+05
   1110.0  7.09730e+05
   1111.0  7.13123e+05
   1112.0  7.16531e+05
   1113.0  7.19954e+05
   1114.0  7.23394e+05
   1115.0  7.26848e+05
   1116.0  7.30319e+05
   1117.0  7.33805e+05
   1118.0  7.37308e+05
   1119.0  7.40826e+05
   1120.0  7.44360e+05
   1121.0  7.47910e+05
   1122.0  7.51477e+05
   1123.0  7.55059e+05
   1124.0  7.58658e+05
   1125.0  7.62273e+05
   1126.0  7.65905e+05
   1127.0  7.69554e+05
   1128.0  7.73219e+05
   1129.0  7.76901e+05
   1130.0  7.80600e+05
   1131.0  7.84316e+05
   1132.0  7.88049e+05
   1133.0  7.91799e+05
   1134.0  7.95566e+05
   1135.0  7.99350e+05
   1136.0  8.03152e+05
   1137.0  8.06970e+05
   1138.0  8.10806e+05
   1139.0  8.14659e+05
   1140.0  8.18530e+05
   1141.0  8.22418e+05
   1142.0  8.26323e+05
   1143.0  8.30247e+05
   1144.0  8.34187e+05
   1145.0  8.38146e+05
   1146.0  8.42123e+05
   1147.0  8.46117e+05
   1148.0  8.50130e+05
   1149.0  8.54161e+05
   1150.0  8.58210e+05
   1151.0  8.62278e+05
   1152.0  8.66364e+05
   1153.0  8.70469e+05
   1154.0  8.74592e+05
   1155.0  8.78735e+05
   1156.0  8.82896e+05
   1157.0  8.87076e+05
   1158.0  8.91275e+05
   1159.0  8.95493e+05
   1160.0  8.99730e+05
   1161.0  9.03986e+05
   1162.0  9.08262e+05
   1163.0  9.12557e+05
   1164.0  9.16872e+05
   1165.0  9.21206e+05
   1166.0  9.25559e+05
   1167.0  9.29932e+05
   1168.0  9.34325e+05
   1169.0  9.38738e+05
   1170.0  9.43170e+05
   1171.0  9.47622e+05
   1172.0  9.52095e+05
   1173.0  9.56587e+05
   1174.0  9.61099e+05
   1175.0  9.65632e+05
   1176.0  9.70185e+05
   1177.0  9.74758e+05
   1178.0  9.79352e+05
   1179.0  9.83966e+05
   1180.0  9.88600e+05
   1181.0  9.93255e+05
   1182.0  9.97931e+05
   1183.0  1.00263e+06
   1184.0  1.00735e+06
   1185.0  1.01208e+06
   1186.0  1.01684e+06
   1187.0  1.02163e+06
   1188.0  1.02643e+06
   1189.0  1.03125e+06
   1190.0  1.03610e+06
   1191.0  1.04097e+06
   1192.0  1.04586e+06
   1193.0  1.05077e+06
   1194.0  1.05571e+06
   1195.0  1.06067e+06
   1196.0  1.06565e+06
   1197.0  1.07065e+06
   1198.0  1.07568e+06
   1199.0  1.08073e+06
   1200.0  1.08580e+06
   1201.0  1.09090e+06
   1202.0  1.09602e+06
   1203.0  1.10116e+06
   1204.0  1.10633e+06
   1205.0  1.11152e+06
   1206.0  1.11673e+06
   1207.0  1.12196e+06
   1208.0  1.12722e+06
   1209.0  1.13250e+06
   1210.0  1.13780e+06
   1211.0  1.14312e+06
   1212.0  1.14847e+06
   1213.0  1.15384e+06
   1214.0  1.15923e+06
   1215.0  1.16465e+06
   1216.0  1.17009e+06
   1217.0  1.17555e+06
   1218.0  1.18104e+06
   1219.0  1.18656e+06
   1220.0  1.19210e+06
   1221.0  1.19767e+06
   1222.0  1.20326e+06
   1223.0  1.20888e+06
   1224.0  1.21452e+06
   1225.0  1.22019e+06
   1226.0  1.22588e+06
   1227.0  1.23160e+06
   1228.0  1.23734e+06
   1229.0  1.24311e+06
   1230.0  1.24890e+06
   1231.0  1.25471e+06
   1232.0  1.26055e+06
   1233.0  1.26641e+06
   1234.0  1.27230e+06
   1235.0  1.27822e+06
   1236.0  1.28416e+06
   1237.0  1.29013e+06
   1238.0  1.29612e+06
   1239.0  1.30215e+06
   1240.0  1.30820e+06
   1241.0  1.31428e+06
   1242.0  1.32040e+06
   1243.0  1.32654e+06
   1244.0  1.33271e+06
   1245.0  1.33890e+06
   1246.0  1.34513e+06
   1247.0  1.35138e+06
   1248.0  1.35766e+06
   1249.0  1.36397e+06
   1250.0  1.37030e+06
   1251.0  1.37666e+06
   1252.0  1.38304e+06
   1253.0  1.38945e+06
   1254.0  1.39589e+06
   1255.0  1.40236e+06
   1256.0  1.40885e+06
   1257.0  1.41537e+06
   1258.0  1.42192e+06
   1259.0  1.42849e+06
   1260.0  1.43510e+06
   1261.0  1.44174e+06
   1262.0  1.44840e+06
   1263.0  1.45509e+06
   1264.0  1.46182e+06
   1265.0  1.46857e+06
   1266.0  1.47536e+06
   1267.0  1.48217e+06
   1268.0  1.48902e+06
   1269.0  1.49589e+06
   1270.0  1.50280e+06
   1271.0  1.50974e+06
   1272.0  1.51671e+06
   1273.0  1.52371e+06
   1274.0  1.53074e+06
   1275.0  1.53780e+06
   1276.0  1.54490e+06
   1277.0  1.55203e+06
   1278.0  1.55918e+06
   1279.0  1.56638e+06
   1280.0  1.57360e+06
   1281.0  1.58086e+06
   1282.0  1.58815e+06
   1283.0  1.59547e+06
   1284.0  1.60282e+06
   1285.0  1.61020e+06
   1286.0  1.61762e+06
   1287.0  1.62507e+06
   1288.0  1.63255e+06
   1289.0  1.64006e+06
   1290.0  1.64760e+06
   1291.0  1.65517e+06
   1292.0  1.66278e+06
   1293.0  1.67041e+06
   1294.0  1.67808e+06
   1295.0  1.68578e+06
   1296.0  1.69351e+06
   1297.0  1.70128e+06
   1298.0  1.70909e+06
   1299.0  1.71693e+06
   1300.0  1.72480e+06
   1301.0  1.73271e+06
   1302.0  1.74066e+06
   1303.0  1.74864e+06
   1304.0  1.75666e+06
   1305.0  1.76471e+06
   1306.0  1.77280e+06
   1307.0  1.78092e+06
   1308.0  1.78908e+06
   1309.0  1.79727e+06
   1310.0  1.80550e+06
   1311.0  1.81376e+06
   1312.0  1.82205e+06
   1313.0  1.83038e+06
   1314.0  1.83875e+06
   1315.0  1.84715e+06
   1316.0  1.85558e+06
   1317.0  1.86406e+06
   1318.0  1.87257e+06
   1319.0  1.88111e+06
   1320.0  1.88970e+06
   1321.0  1.89833e+06
   1322.0  1.90699e+06
   1323.0  1.91569e+06
   1324.0  1.92443e+06
   1325.0  1.93321e+06
   1326.0  1.94203e+06
   1327.0  1.95089e+06
   1328.0  1.95979e+06
   1329.0  1.96873e+06
   1330.0  1.97770e+06
   1331.0  1.98671e+06
   1332.0  1.99577e+06
   1333.0  2.00486e+06
   1334.0  2.01399e+06
   1335.0  2.02316e+06
   1336.0  2.03237e+06
   1337.0  2.04162e+06
   1338.0  2.05090e+06
   1339.0  2.06023e+06
   1340.0  2.06960e+06
   1341.0  2.07901e+06
   1342.0  2.08845e+06
   1343.0  2.09794e+06
   1344.0  2.10747e+06
   1345.0  2.11704e+06
   1346.0  2.12665e+06
   1347.0  2.13630e+06
   1348.0  2.14599e+06
   1349.0  2.15572e+06
   1350.0  2.16550e+06
   1351.0  2.17532e+06
   1352.0  2.18518e+06
   1353.0  2.19508e+06
   1354.0  2.20502e+06
   1355.0  2.21501e+06
   1356.0  2.22504e+06
   1357.0  2.23511e+06
   1358.0  2.24523e+06
   1359.0  2.25539e+06
   1360.0  2.26560e+06
   1361.0  2.27585e+06
   1362.0  2.28614e+06
   1363.0  2.29648e+06
   1364.0  2.30687e+06
   1365.0  2.31730e+06
   1366.0  2.32777e+06
   1367.0  2.33828e+06
   1368.0  2.34885e+06
   1369.0  2.35945e+06
   1370.0  2.37010e+06
   1371.0  2.38079e+06
   1372.0  2.39153e+06
   1373.0  2.40232e+06
   1374.0  2.41315e+06
   1375.0  2.42402e+06
   1376.0  2.43494e+06
   1377.0  2.44591e+06
   1378.0  2.45693e+06
   1379.0  2.46799e+06
   1380.0  2.47910e+06
   1381.0  2.49026e+06
   1382.0  2.50147e+06
   1383.0  2.51272e+06
   1384.0  2.52403e+06
   1385.0  2.53538e+06
   1386.0  2.54679e+06
   1387.0  2.55824e+06
   1388.0  2.56974e+06
   1389.0  2.58130e+06
   1390.0  2.59290e+06
   1391.0  2.60455e+06
   1392.0  2.61626e+06
   1393.0  2.62801e+06
   1394.0  2.63981e+06
   1395.0  2.65167e+06
   1396.0  2.66357e+06
   1397.0  2.67553e+06
   1398.0  2.68754e+06
   1399.0  2.69959e+06
   1400.0  2.71170e+06
   1401.0  2.72386e+06
   1402.0  2.73607e+06
   1403.0  2.74833e+06
   1404.0  2.76064e+06
   1405.0  2.77300e+06
   1406.0  2.78542e+06
   1407.0  2.79789e+06
   1408.0  2.81040e+06
   1409.0  2.82298e+06
   1410.0  2.83560e+06
   1411.0  2.84828e+06
   1412.0  2.86101e+06
   1413.0  2.87379e+06
   1414.0  2.88663e+06
   1415.0  2.89952e+06
   1416.0  2.91246e+06
   1417.0  2.92546e+06
   1418.0  2.93852e+06
   1419.0  2.95163e+06
   1420.0  2.96480e+06
   1421.0  2.97802e+06
   1422.0  2.99131e+06
   1423.0  3.00464e+06
   1424.0  3.01804e+06
   1425.0  3.03149e+06
   1426.0  3.04500e+06
   1427.0  3.05856e+06
   1428.0  3.07218e+06
   1429.0  3.08586e+06
   1430.0  3.09960e+06
   1431.0  3.11339e+06
   1432.0  3.12725e+06
   1433.0  3.14116e+06
   1434.0  3.15513e+06
   1435.0  3.16915e+06
   1436.0  3.18324e+06
   1437.0  3.19739e+06
   1438.0  3.21160e+06
   1439.0  3.22587e+06
   1440.0  3.24020e+06
   1441.0  3.25459e+06
   1442.0  3.26905e+06
   1443.0  3.28356e+06
   1444.0  3.29814e+06
   1445.0  3.31278e+06
   1446.0  3.32748e+06
   1447.0  3.34224e+06
   1448.0  3.35707e+06
   1449.0  3.37195e+06
   1450.0  3.38690e+06
   1451.0  3.40191e+06
   1452.0  3.41698e+06
   1453.0  3.43211e+06
   1454.0  3.44730e+06
   1455.0  3.46256e+06
   1456.0  3.47788e+06
   1457.0  3.49326e+06
   1458.0  3.50871e+06
   1459.0  3.52422e+06
   1460.0  3.53980e+06
   1461.0  3.55544e+06
   1462.0  3.57115e+06
   1463.0  3.58692e+06
   1464.0  3.60276e+06
   1465.0  3.61867e+06
   1466.0  3.63464e+06
   1467.0  3.65068e+06
   1468.0  3.66678e+06
   1469.0  3.68296e+06
   1470.0  3.69920e+06
   1471.0  3.71551e+06
   1472.0  3.73189e+06
   1473.0  3.74834e+06
   1474.0  3.76485e+06
   1475.0  3.78144e+06
   1476.0  3.79809e+06
   1477.0  3.81482e+06
   1478.0  3.83161e+06
   1479.0  3.84847e+06
   1480.0  3.86540e+06
   1481.0  3.88240e+06
   1482.0  3.89947e+06
   1483.0  3.91661e+06
   1484.0  3.93382e+06
   1485.0  3.95110e+06
   1486.0  3.96845e+06
   1487.0  3.98588e+06
   1488.0  4.00338e+06
   1489.0  4.02095e+06
   1490.0  4.03860e+06
   1491.0  4.05632e+06
   1492.0  4.07412e+06
   1493.0  4.09199e+06
   1494.0  4.10994e+06
   1495.0  4.12796e+06
   1496.0  4.14606e+06
   1497.0  4.16423e+06
   1498.0  4.18248e+06
   1499.0  4.20080e+06
   1500.0  4.21920e+06
   1501.0  4.23767e+06
   1502.0  4.25623e+06
   1503.0  4.27485e+06
   1504.0  4.29356e+06
   1505.0  4.31234e+06
   1506.0  4.33119e+06
   1507.0  4.35013e+06
   1508.0  4.36914e+06
   1509.0  4.38823e+06
   1510.0  4.40740e+06
   1511.0  4.42665e+06
   1512.0  4.44597e+06
   1513.0  4.46538e+06
   1514.0  4.48487e+06
   1515.0  4.50443e+06
   1516.0  4.52408e+06
   1517.0  4.54381e+06
   1518.0  4.56363e+06
   1519.0  4.58352e+06
   1520.0  4.60350e+06
   1521.0  4.62356e+06
   1522.0  4.64371e+06
   1523.0  4.66394e+06
   1524.0  4.68425e+06
   1525.0  4.70465e+06
   1526.0  4.72513e+06
   1527.0  4.74570e+06
   1528.0  4.76635e+06
   1529.0  4.78708e+06
   1530.0  4.80790e+06
   1531.0  4.82880e+06
   1532.0  4.84979e+06
   1533.0  4.87086e+06
   1534.0  4.89202e+06
   1535.0  4.91326e+06
   1536.0  4.93460e+06
   1537.0  4.95601e+06
   1538.0  4.97752e+06
   1539.0  4.99912e+06
   1540.0  5.02080e+06
   1541.0  5.04257e+06
   1542.0  5.06444e+06
   1543.0  5.08639e+06
   1544.0  5.10843e+06
   1545.0  5.13057e+06
   1546.0  5.15279e+06
   1547.0  5.17511e+06
   1548.0  5.19751e+06
   1549.0  5.22001e+06
   1550.0  5.24260e+06
   1551.0  5.26528e+06
   1552.0  5.28805e+06
   1553.0  5.31092e+06
   1554.0  5.33388e+06
   1555.0  5.35693e+06
   1556.0  5.38007e+06
   1557.0  5.40331e+06
   1558.0  5.42665e+06
   1559.0  5.45007e+06
   1560.0  5.47360e+06
   1561.0  5.49722e+06
   1562.0  5.52094e+06
   1563.0  5.54475e+06
   1564.0  5.56867e+06
   1565.0  5.59267e+06
   1566.0  5.61678e+06
   1567.0  5.64099e+06
   1568.0  5.66529e+06
   1569.0  5.68970e+06
   1570.0  5.71420e+06
   1571.0  5.73880e+06
   1572.0  5.76351e+06
   1573.0  5.78831e+06
   1574.0  5.81322e+06
   1575.0  5.83822e+06
   1576.0  5.86333e+06
   1577.0  5.88854e+06
   1578.0  5.91386e+06
   1579.0  5.93928e+06
   1580.0  5.96480e+06
   1581.0  5.99043e+06
   1582.0  6.01616e+06
   1583.0  6.04199e+06
   1584.0  6.06793e+06
   1585.0  6.09398e+06
   1586.0  6.12013e+06
   1587.0  6.14639e+06
   1588.0  6.17275e+06
   1589.0  6.19922e+06
   1590.0  6.22580e+06
   1591.0  6.25248e+06
   1592.0  6.27927e+06
   1593.0  6.30617e+06
   1594.0  6.33318e+06
   1595.0  6.36029e+06
   1596.0  6.38752e+06
   1597.0  6.41485e+06
   1598.0  6.44229e+06
   1599.0  6.46984e+06
   1600.0  6.49750e+06
   1601.0  6.52527e+06
   1602.0  6.55315e+06
   1603.0  6.58115e+06
   1604.0  6.60925e+06
   1605.0  6.63747e+06
   1606.0  6.66581e+06
   1607.0  6.69426e+06
   1608.0  6.72282e+06
   1609.0  6.75150e+06
   1610.0  6.78030e+06
   1611.0  6.80922e+06
   1612.0  6.83825e+06
   1613.0  6.86740e+06
   1614.0  6.89667e+06
   1615.0  6.92606e+06
   1616.0  6.95557e+06
   1617.0  6.98520e+06
   1618.0  7.01495e+06
   1619.0  7.04481e+06
   1620.0  7.07480e+06
   1621.0  7.10491e+06
   1622.0  7.13513e+06
   1623.0  7.16548e+06
   1624.0  7.19595e+06
   1625.0  7.22653e+06
   1626.0  7.25724e+06
   1627.0  7.28807e+06
   1628.0  7.31903e+06
   1629.0  7.35010e+06
   1630.0  7.38130e+06
   1631.0  7.41262e+06
   1632.0  7.44407e+06
   1633.0  7.47564e+06
   1634.0  7.50733e+06
   1635.0  7.53915e+06
   1636.0  7.57110e+06
   1637.0  7.60318e+06
   1638.0  7.63539e+06
   1639.0  7.66773e+06
   1640.0  7.70020e+06
   1641.0  7.73280e+06
   1642.0  7.76554e+06
   1643.0  7.79841e+06
   1644.0  7.83141e+06
   1645.0  7.86454e+06
   1646.0  7.89781e+06
   1647.0  7.93121e+06
   1648.0  7.96474e+06
   1649.0  7.99840e+06
   1650.0  8.03220e+06
   1651.0  8.06613e+06
   1652.0  8.10019e+06
   1653.0  8.13439e+06
   1654.0  8.16872e+06
   1655.0  8.20319e+06
   1656.0  8.23780e+06
   1657.0  8.27254e+06
   1658.0  8.30742e+06
   1659.0  8.34244e+06
   1660.0  8.37760e+06
   1661.0  8.41290e+06
   1662.0  8.44834e+06
   1663.0  8.48393e+06
   1664.0  8.51965e+06
   1665.0  8.55552e+06
   1666.0  8.59153e+06
   1667.0  8.62768e+06
   1668.0  8.66398e+06
   1669.0  8.70042e+06
   1670.0  8.73700e+06
   1671.0  8.77373e+06
   1672.0  8.81060e+06
   1673.0  8.84762e+06
   1674.0  8.88479e+06
   1675.0  8.92210e+06
   1676.0  8.95956e+06
   1677.0  8.99717e+06
   1678.0  9.03493e+06
   1679.0  9.07284e+06
   1680.0  9.11090e+06
   1681.0  9.14911e+06
   1682.0  9.18748e+06
   1683.0  9.22599e+06
   1684.0  9.26466e+06
   1685.0  9.30348e+06
   1686.0  9.34246e+06
   1687.0  9.38159e+06
   1688.0  9.42087e+06
   1689.0  9.46031e+06
   1690.0  9.49990e+06
   1691.0  9.53965e+06
   1692.0  9.57955e+06
   1693.0  9.61961e+06
   1694.0  9.65982e+06
   1695.0  9.70020e+06
   1696.0  9.74072e+06
   1697.0  9.78141e+06
   1698.0  9.82225e+06
   1699.0  9.86324e+06
   1700.0  9.90440e+06
   1701.0  9.94571e+06
   1702.0  9.98719e+06
   1703.0  1.00288e+07
   1704.0  1.00706e+07
   1705.0  1.01126e+07
   1706.0  1.01547e+07
   1707.0  1.01970e+07
   1708.0  1.02395e+07
   1709.0  1.02822e+07
   1710.0  1.03250e+07
   1711.0  1.03680e+07
   1712.0  1.04112e+07
   1713.0  1.04546e+07
   1714.0  1.04981e+07
   1715.0  1.05418e+07
   1716.0  1.05857e+07
   1717.0  1.06298e+07
   1718.0  1.06740e+07
   1719.0  1.07184e+07
   1720.0  1.07630e+07
   1721.0  1.08077e+07
   1722.0  1.08526e+07
   1723.0  1.08977e+07
   1724.0  1.09429e+07
   1725.0  1.09883e+07
   1726.0  1.10339e+07
   1727.0  1.10797e+07
   1728.0  1.11256e+07
   1729.0  1.11717e+07
   1730.0  1.12180e+07
   1731.0  1.12645e+07
   1732.0  1.13111e+07
   1733.0  1.13579e+07
   1734.0  1.14050e+07
   1735.0  1.14522e+07
   1736.0  1.14996e+07
   1737.0  1.15471e+07
   1738.0  1.15949e+07
   1739.0  1.16429e+07
   1740.0  1.16910e+07
   1741.0  1.17393e+07
   1742.0  1.17879e+07
   1743.0  1.18366e+07
   1744.0  1.18855e+07
   1745.0  1.19346e+07
   1746.0  1.19839e+07
   1747.0  1.20334e+07
   1748.0  1.20831e+07
   1749.0  1.21329e+07
   1750.0  1.21830e+07
   1751.0  1.22332e+07
   1752.0  1.22837e+07
   1753.0  1.23343e+07
   1754.0  1.23851e+07
   1755.0  1.24361e+07
   1756.0  1.24873e+07
   1757.0  1.25387e+07
   1758.0  1.25902e+07
   1759.0  1.26420e+07
   1760.0  1.26940e+07
   1761.0  1.27462e+07
   1762.0  1.27986e+07
   1763.0  1.28511e+07
   1764.0  1.29039e+07
   1765.0  1.29569e+07
   1766.0  1.30101e+07
   1767.0  1.30635e+07
   1768.0  1.31171e+07
   1769.0  1.31710e+07
   1770.0  1.32250e+07
   1771.0  1.32792e+07
   1772.0  1.33337e+07
   1773.0  1.33884e+07
   1774.0  1.34432e+07
   1775.0  1.34983e+07
   1776.0  1.35536e+07
   1777.0  1.36091e+07
   1778.0  1.36649e+07
   1779.0  1.37208e+07
   1780.0  1.37770e+07
   1781.0  1.38334e+07
   1782.0  1.38900e+07
   1783.0  1.39468e+07
   1784.0  1.40039e+07
   1785.0  1.40611e+07
   1786.0  1.41186e+07
   1787.0  1.41764e+07
   1788.0  1.42344e+07
   1789.0  1.42926e+07
   1790.0  1.43510e+07
   1791.0  1.44097e+07
   1792.0  1.44686e+07
   1793.0  1.45277e+07
   1794.0  1.45871e+07
   1795.0  1.46467e+07
   1796.0  1.47065e+07
   1797.0  1.47666e+07
   1798.0  1.48269e+07
   1799.0  1.48873e+07
   1800.0  1.49480e+07
   1801.0  1.50089e+07
   1802.0  1.50700e+07
   1803.0  1.51313e+07
   1804.0  1.51928e+07
   1805.0  1.52546e+07
   1806.0  1.53166e+07
   1807.0  1.53788e+07
   1808.0  1.54413e+07
   1809.0  1.55040e+07
   1810.0  1.55670e+07
   1811.0  1.56302e+07
   1812.0  1.56937e+07
   1813.0  1.57575e+07
   1814.0  1.58215e+07
   1815.0  1.58858e+07
   1816.0  1.59503e+07
   1817.0  1.60151e+07
   1818.0  1.60802e+07
   1819.0  1.61455e+07
   1820.0  1.62110e+07
   1821.0  1.62768e+07
   1822.0  1.63428e+07
   1823.0  1.64091e+07
   1824.0  1.64757e+07
   1825.0  1.65424e+07
   1826.0  1.66095e+07
   1827.0  1.66767e+07
   1828.0  1.67443e+07
   1829.0  1.68120e+07
   1830.0  1.68800e+07
   1831.0  1.69482e+07
   1832.0  1.70167e+07
   1833.0  1.70854e+07
   1834.0  1.71544e+07
   1835.0  1.72237e+07
   1836.0  1.72932e+07
   1837.0  1.73630e+07
   1838.0  1.74330e+07
   1839.0  1.75034e+07
   1840.0  1.75740e+07
   1841.0  1.76449e+07
   1842.0  1.77162e+07
   1843.0  1.77877e+07
   1844.0  1.78595e+07
   1845.0  1.79315e+07
   1846.0  1.80039e+07
   1847.0  1.80765e+07
   1848.0  1.81494e+07
   1849.0  1.82226e+07
   1850.0  1.82960e+07
   1851.0  1.83697e+07
   1852.0  1.84436e+07
   1853.0  1.85178e+07
   1854.0  1.85923e+07
   1855.0  1.86671e+07
   1856.0  1.87421e+07
   1857.0  1.88174e+07
   1858.0  1.88930e+07
   1859.0  1.89688e+07
   1860.0  1.90450e+07
   1861.0  1.91215e+07
   1862.0  1.91982e+07
   1863.0  1.92753e+07
   1864.0  1.93526e+07
   1865.0  1.94303e+07
   1866.0  1.95082e+07
   1867.0  1.95864e+07
   1868.0  1.96650e+07
   1869.0  1.97438e+07
   1870.0  1.98230e+07
   1871.0  1.99025e+07
   1872.0  1.99822e+07
   1873.0  2.00623e+07
   1874.0  2.01426e+07
   1875.0  2.02233e+07
   1876.0  2.03043e+07
   1877.0  2.03855e+07
   1878.0  2.04670e+07
   1879.0  2.05489e+07
   1880.0  2.06310e+07
   1881.0  2.07134e+07
   1882.0  2.07961e+07
   1883.0  2.08791e+07
   1884.0  2.09624e+07
   1885.0  2.10460e+07
   1886.0  2.11300e+07
   1887.0  2.12142e+07
   1888.0  2.12988e+07
   1889.0  2.13837e+07
   1890.0  2.14690e+07
   1891.0  2.15546e+07
   1892.0  2.16406e+07
   1893.0  2.17269e+07
   1894.0  2.18135e+07
   1895.0  2.19004e+07
   1896.0  2.19877e+07
   1897.0  2.20753e+07
   1898.0  2.21632e+07
   1899.0  2.22515e+07
   1900.0  2.23400e+07
   1901.0  2.24288e+07
   1902.0  2.25180e+07
   1903.0  2.26075e+07
   1904.0  2.26972e+07
   1905.0  2.27874e+07
   1906.0  2.28778e+07
   1907.0  2.29686e+07
   1908.0  2.30597e+07
   1909.0  2.31512e+07
   1910.0  2.32430e+07
   1911.0  2.33352e+07
   1912.0  2.34277e+07
   1913.0  2.35206e+07
   1914.0  2.36139e+07
   1915.0  2.37075e+07
   1916.0  2.38015e+07
   1917.0  2.38958e+07
   1918.0  2.39905e+07
   1919.0  2.40856e+07
   1920.0  2.41810e+07
   1921.0  2.42768e+07
   1922.0  2.43729e+07
   1923.0  2.44694e+07
   1924.0  2.45663e+07
   1925.0  2.46635e+07
   1926.0  2.47611e+07
   1927.0  2.48591e+07
   1928.0  2.49573e+07
   1929.0  2.50560e+07
   1930.0  2.51550e+07
   1931.0  2.52544e+07
   1932.0  2.53541e+07
   1933.0  2.54541e+07
   1934.0  2.55546e+07
   1935.0  2.56554e+07
   1936.0  2.57566e+07
   1937.0  2.58581e+07
   1938.0  2.59600e+07
   1939.0  2.60623e+07
   1940.0  2.61650e+07
   1941.0  2.62681e+07
   1942.0  2.63715e+07
   1943.0  2.64753e+07
   1944.0  2.65796e+07
   1945.0  2.66842e+07
   1946.0  2.67892e+07
   1947.0  2.68945e+07
   1948.0  2.70003e+07
   1949.0  2.71065e+07
   1950.0  2.72130e+07
   1951.0  2.73199e+07
   1952.0  2.74272e+07
   1953.0  2.75349e+07
   1954.0  2.76430e+07
   1955.0  2.77515e+07
   1956.0  2.78604e+07
   1957.0  2.79697e+07
   1958.0  2.80794e+07
   1959.0  2.81895e+07
   1960.0  2.83000e+07
   1961.0  2.84109e+07
   1962.0  2.85222e+07
   1963.0  2.86340e+07
   1964.0  2.87461e+07
   1965.0  2.88587e+07
   1966.0  2.89717e+07
   1967.0  2.90851e+07
   1968.0  2.91990e+07
   1969.0  2.93133e+07
   1970.0  2.94280e+07
   1971.0  2.95432e+07
   1972.0  2.96588e+07
   1973.0  2.97748e+07
   1974.0  2.98913e+07
   1975.0  3.00082e+07
   1976.0  3.01256e+07
   1977.0  3.02433e+07
   1978.0  3.03615e+07
   1979.0  3.04800e+07
   1980.0  3.05990e+07
   1981.0  3.07184e+07
   1982.0  3.08382e+07
   1983.0  3.09584e+07
   1984.0  3.10790e+07
   1985.0  3.12000e+07
   1986.0  3.13215e+07
   1987.0  3.14435e+07
   1988.0  3.15658e+07
   1989.0  3.16887e+07
   1990.0  3.18120e+07
   1991.0  3.19358e+07
   1992.0  3.20600e+07
   1993.0  3.21848e+07
   1994.0  3.23100e+07
   1995.0  3.24356e+07
   1996.0  3.25618e+07
   1997.0  3.26884e+07
   1998.0  3.28155e+07
   1999.0  3.29430e+07
   2000.0  3.30710e+07
   2001.0  3.31995e+07
   2002.0  3.33284e+07
   2003.0  3.34578e+07
   2004.0  3.35877e+07
   2005.0  3.37181e+07
   2006.0  3.38489e+07
   2007.0  3.39802e+07
   2008.0  3.41120e+07
   2009.0  3.42443e+07
   2010.0  3.43770e+07
   2011.0  3.45102e+07
   2012.0  3.46439e+07
   2013.0  3.47781e+07
   2014.0  3.49128e+07
   2015.0  3.50480e+07
   2016.0  3.51836e+07
   2017.0  3.53198e+07
   2018.0  3.54564e+07
   2019.0  3.55934e+07
   2020.0  3.57310e+07
   2021.0  3.58690e+07
   2022.0  3.60076e+07
   2023.0  3.61466e+07
   2024.0  3.62861e+07
   2025.0  3.64261e+07
   2026.0  3.65666e+07
   2027.0  3.67077e+07
   2028.0  3.68493e+07
   2029.0  3.69914e+07
   2030.0  3.71340e+07
   2031.0  3.72772e+07
   2032.0  3.74209e+07
   2033.0  3.75652e+07
   2034.0  3.77100e+07
   2035.0  3.78553e+07
   2036.0  3.80012e+07
   2037.0  3.81476e+07
   2038.0  3.82945e+07
   2039.0  3.84420e+07
   2040.0  3.85900e+07
   2041.0  3.87385e+07
   2042.0  3.88876e+07
   2043.0  3.90371e+07
   2044.0  3.91873e+07
   2045.0  3.93379e+07
   2046.0  3.94890e+07
   2047.0  3.96407e+07
   2048.0  3.97930e+07
   2049.0  3.99457e+07
   2050.0  4.00990e+07
   2051.0  4.02528e+07
   2052.0  4.04072e+07
   2053.0  4.05621e+07
   2054.0  4.07175e+07
   2055.0  4.08735e+07
   2056.0  4.10301e+07
   2057.0  4.11872e+07
   2058.0  4.13449e+07
   2059.0  4.15032e+07
   2060.0  4.16620e+07
   2061.0  4.18214e+07
   2062.0  4.19814e+07
   2063.0  4.21421e+07
   2064.0  4.23033e+07
   2065.0  4.24651e+07
   2066.0  4.26274e+07
   2067.0  4.27904e+07
   2068.0  4.29540e+07
   2069.0  4.31182e+07
   2070.0  4.32830e+07
   2071.0  4.34484e+07
   2072.0  4.36144e+07
   2073.0  4.37810e+07
   2074.0  4.39482e+07
   2075.0  4.41160e+07
   2076.0  4.42844e+07
   2077.0  4.44534e+07
   2078.0  4.46230e+07
   2079.0  4.47932e+07
   2080.0  4.49640e+07
   2081.0  4.51354e+07
   2082.0  4.53073e+07
   2083.0  4.54799e+07
   2084.0  4.56531e+07
   2085.0  4.58268e+07
   2086.0  4.60012e+07
   2087.0  4.61762e+07
   2088.0  4.63519e+07
   2089.0  4.65281e+07
   2090.0  4.67050e+07
   2091.0  4.68825e+07
   2092.0  4.70607e+07
   2093.0  4.72395e+07
   2094.0  4.74189e+07
   2095.0  4.75990e+07
   2096.0  4.77797e+07
   2097.0  4.79611e+07
   2098.0  4.81431e+07
   2099.0  4.83257e+07
   2100.0  4.85090e+07
   2101.0  4.86929e+07
   2102.0  4.88775e+07
   2103.0  4.90627e+07
   2104.0  4.92486e+07
   2105.0  4.94352e+07
   2106.0  4.96224e+07
   2107.0  4.98103e+07
   2108.0  4.99988e+07
   2109.0  5.01881e+07
   2110.0  5.03780e+07
   2111.0  5.05686e+07
   2112.0  5.07599e+07
   2113.0  5.09519e+07
   2114.0  5.11446e+07
   2115.0  5.13379e+07
   2116.0  5.15320e+07
   2117.0  5.17267e+07
   2118.0  5.19221e+07
   2119.0  5.21182e+07
   2120.0  5.23150e+07
   2121.0  5.25125e+07
   2122.0  5.27106e+07
   2123.0  5.29095e+07
   2124.0  5.31090e+07
   2125.0  5.33092e+07
   2126.0  5.35102e+07
   2127.0  5.37118e+07
   2128.0  5.39142e+07
   2129.0  5.41172e+07
   2130.0  5.43210e+07
   2131.0  5.45255e+07
   2132.0  5.47307e+07
   2133.0  5.49367e+07
   2134.0  5.51433e+07
   2135.0  5.53508e+07
   2136.0  5.55589e+07
   2137.0  5.57678e+07
   2138.0  5.59775e+07
   2139.0  5.61879e+07
   2140.0  5.63990e+07
   2141.0  5.66109e+07
   2142.0  5.68236e+07
   2143.0  5.70370e+07
   2144.0  5.72512e+07
   2145.0  5.74661e+07
   2146.0  5.76818e+07
   2147.0  5.78982e+07
   2148.0  5.81154e+07
   2149.0  5.83333e+07
   2150.0  5.85520e+07
   2151.0  5.87714e+07
   2152.0  5.89916e+07
   2153.0  5.92125e+07
   2154.0  5.94343e+07
   2155.0  5.96567e+07
   2156.0  5.98800e+07
   2157.0  6.01040e+07
   2158.0  6.03289e+07
   2159.0  6.05545e+07
   2160.0  6.07810e+07
   2161.0  6.10083e+07
   2162.0  6.12364e+07
   2163.0  6.14653e+07
   2164.0  6.16950e+07
   2165.0  6.19255e+07
   2166.0  6.21568e+07
   2167.0  6.23889e+07
   2168.0  6.26218e+07
   2169.0  6.28555e+07
   2170.0  6.30900e+07
   2171.0  6.33253e+07
   2172.0  6.35614e+07
   2173.0  6.37983e+07
   2174.0  6.40360e+07
   2175.0  6.42745e+07
   2176.0  6.45139e+07
   2177.0  6.47541e+07
   2178.0  6.49952e+07
   2179.0  6.52372e+07
   2180.0  6.54800e+07
   2181.0  6.57237e+07
   2182.0  6.59683e+07
   2183.0  6.62138e+07
   2184.0  6.64601e+07
   2185.0  6.67073e+07
   2186.0  6.69553e+07
   2187.0  6.72042e+07
   2188.0  6.74540e+07
   2189.0  6.77046e+07
   2190.0  6.79560e+07
   2191.0  6.82083e+07
   2192.0  6.84614e+07
   2193.0  6.87153e+07
   2194.0  6.89702e+07
   2195.0  6.92259e+07
   2196.0  6.94825e+07
   2197.0  6.97400e+07
   2198.0  6.99984e+07
   2199.0  7.02577e+07
   2200.0  7.05180e+07
   2201.0  7.07792e+07
   2202.0  7.10414e+07
   2203.0  7.13045e+07
   2204.0  7.15685e+07
   2205.0  7.18335e+07
   2206.0  7.20994e+07
   2207.0  7.23662e+07
   2208.0  7.26339e+07
   2209.0  7.29025e+07
   2210.0  7.31720e+07
   2211.0  7.34424e+07
   2212.0  7.37137e+07
   2213.0  7.39860e+07
   2214.0  7.42591e+07
   2215.0  7.45332e+07
   2216.0  7.48083e+07
   2217.0  7.50843e+07
   2218.0  7.53612e+07
   2219.0  7.56391e+07
   2220.0  7.59180e+07
   2221.0  7.61979e+07
   2222.0  7.64787e+07
   2223.0  7.67606e+07
   2224.0  7.70434e+07
   2225.0  7.73272e+07
   2226.0  7.76120e+07
   2227.0  7.78978e+07
   2228.0  7.81845e+07
   2229.0  7.84723e+07
   2230.0  7.87610e+07
   2231.0  7.90507e+07
   2232.0  7.93414e+07
   2233.0  7.96331e+07
   2234.0  7.99257e+07
   2235.0  8.02194e+07
   2236.0  8.05141e+07
   2237.0  8.08098e+07
   2238.0  8.11065e+07
   2239.0  8.14042e+07
   2240.0  8.17030e+07
   2241.0  8.20028e+07
   2242.0  8.23036e+07
   2243.0  8.26055e+07
   2244.0  8.29084e+07
   2245.0  8.32124e+07
   2246.0  8.35174e+07
   2247.0  8.38235e+07
   2248.0  8.41306e+07
   2249.0  8.44388e+07
   2250.0  8.47480e+07
   2251.0  8.50583e+07
   2252.0  8.53696e+07
   2253.0  8.56820e+07
   2254.0  8.59955e+07
   2255.0  8.63101e+07
   2256.0  8.66257e+07
   2257.0  8.69424e+07
   2258.0  8.72602e+07
   2259.0  8.75790e+07
   2260.0  8.78990e+07
   2261.0  8.82200e+07
   2262.0  8.85422e+07
   2263.0  8.88654e+07
   2264.0  8.91897e+07
   2265.0  8.95152e+07
   2266.0  8.98417e+07
   2267.0  9.01694e+07
   2268.0  9.04981e+07
   2269.0  9.08280e+07
   2270.0  9.11590e+07
   2271.0  9.14911e+07
   2272.0  9.18244e+07
   2273.0  9.21588e+07
   2274.0  9.24943e+07
   2275.0  9.28310e+07
   2276.0  9.31689e+07
   2277.0  9.35079e+07
   2278.0  9.38481e+07
   2279.0  9.41894e+07
   2280.0  9.45320e+07
   2281.0  9.48758e+07
   2282.0  9.52207e+07
   2283.0  9.55668e+07
   2284.0  9.59141e+07
   2285.0  9.62626e+07
   2286.0  9.66122e+07
   2287.0  9.69629e+07
   2288.0  9.73148e+07
   2289.0  9.76678e+07
   2290.0  9.80220e+07
   2291.0  9.83773e+07
   2292.0  9.87337e+07
   2293.0  9.90913e+07
   2294.0  9.94501e+07
   2295.0  9.98101e+07
   2296.0  1.00171e+08
   2297.0  1.00534e+08
   2298.0  1.00898e+08
   2299.0  1.01263e+08
   2300.0  1.01630e+08
   2301.0  1.01998e+08
   2302.0  1.02368e+08
   2303.0  1.02738e+08
   2304.0  1.03111e+08
   2305.0  1.03484e+08
   2306.0  1.03859e+08
   2307.0  1.04235e+08
   2308.0  1.04612e+08
   2309.0  1.04990e+08
   2310.0  1.05370e+08
   2311.0  1.05751e+08
   2312.0  1.06132e+08
   2313.0  1.06515e+08
   2314.0  1.06899e+08
   2315.0  1.07285e+08
   2316.0  1.07671e+08
   2317.0  1.08059e+08
   2318.0  1.08448e+08
   2319.0  1.08838e+08
   2320.0  1.09230e+08
   2321.0  1.09623e+08
   2322.0  1.10017e+08
   2323.0  1.10413e+08
   2324.0  1.10810e+08
   2325.0  1.11208e+08
   2326.0  1.11608e+08
   2327.0  1.12009e+08
   2328.0  1.12411e+08
   2329.0  1.12815e+08
   2330.0  1.13220e+08
   2331.0  1.13626e+08
   2332.0  1.14034e+08
   2333.0  1.14443e+08
   2334.0  1.14854e+08
   2335.0  1.15266e+08
   2336.0  1.15680e+08
   2337.0  1.16095e+08
   2338.0  1.16512e+08
   2339.0  1.16930e+08
   2340.0  1.17350e+08
   2341.0  1.17772e+08
   2342.0  1.18195e+08
   2343.0  1.18619e+08
   2344.0  1.19045e+08
   2345.0  1.19473e+08
   2346.0  1.19902e+08
   2347.0  1.20332e+08
   2348.0  1.20764e+08
   2349.0  1.21196e+08
   2350.0  1.21630e+08
   2351.0  1.22065e+08
   2352.0  1.22501e+08
   2353.0  1.22938e+08
   2354.0  1.23377e+08
   2355.0  1.23817e+08
   2356.0  1.24258e+08
   2357.0  1.24701e+08
   2358.0  1.25146e+08
   2359.0  1.25592e+08
   2360.0  1.26040e+08
   2361.0  1.26490e+08
   2362.0  1.26941e+08
   2363.0  1.27394e+08
   2364.0  1.27849e+08
   2365.0  1.28305e+08
   2366.0  1.28763e+08
   2367.0  1.29223e+08
   2368.0  1.29684e+08
   2369.0  1.30146e+08
   2370.0  1.30610e+08
   2371.0  1.31075e+08
   2372.0  1.31542e+08
   2373.0  1.32010e+08
   2374.0  1.32480e+08
   2375.0  1.32951e+08
   2376.0  1.33423e+08
   2377.0  1.33898e+08
   2378.0  1.34374e+08
   2379.0  1.34851e+08
   2380.0  1.35330e+08
   2381.0  1.35811e+08
   2382.0  1.36293e+08
   2383.0  1.36777e+08
   2384.0  1.37263e+08
   2385.0  1.37750e+08
   2386.0  1.38239e+08
   2387.0  1.38729e+08
   2388.0  1.39221e+08
   2389.0  1.39715e+08
   2390.0  1.40210e+08
   2391.0  1.40707e+08
   2392.0  1.41205e+08
   2393.0  1.41704e+08
   2394.0  1.42206e+08
   2395.0  1.42709e+08
   2396.0  1.43213e+08
   2397.0  1.43720e+08
   2398.0  1.44228e+08
   2399.0  1.44738e+08
   2400.0  1.45250e+08
   2401.0  1.45764e+08
   2402.0  1.46280e+08
   2403.0  1.46797e+08
   2404.0  1.47317e+08
   2405.0  1.47838e+08
   2406.0  1.48361e+08
   2407.0  1.48886e+08
   2408.0  1.49412e+08
   2409.0  1.49940e+08
   2410.0  1.50470e+08
   2411.0  1.51001e+08
   2412.0  1.51534e+08
   2413.0  1.52069e+08
   2414.0  1.52605e+08
   2415.0  1.53143e+08
   2416.0  1.53683e+08
   2417.0  1.54225e+08
   2418.0  1.54768e+08
   2419.0  1.55313e+08
   2420.0  1.55860e+08
   2421.0  1.56409e+08
   2422.0  1.56959e+08
   2423.0  1.57512e+08
   2424.0  1.58066e+08
   2425.0  1.58622e+08
   2426.0  1.59180e+08
   2427.0  1.59740e+08
   2428.0  1.60302e+08
   2429.0  1.60865e+08
   2430.0  1.61430e+08
   2431.0  1.61997e+08
   2432.0  1.62566e+08
   2433.0  1.63136e+08
   2434.0  1.63708e+08
   2435.0  1.64282e+08
   2436.0  1.64858e+08
   2437.0  1.65436e+08
   2438.0  1.66015e+08
   2439.0  1.66597e+08
   2440.0  1.67180e+08
   2441.0  1.67765e+08
   2442.0  1.68352e+08
   2443.0  1.68941e+08
   2444.0  1.69532e+08
   2445.0  1.70124e+08
   2446.0  1.70719e+08
   2447.0  1.71316e+08
   2448.0  1.71915e+08
   2449.0  1.72517e+08
   2450.0  1.73120e+08
   2451.0  1.73726e+08
   2452.0  1.74334e+08
   2453.0  1.74944e+08
   2454.0  1.75556e+08
   2455.0  1.76170e+08
   2456.0  1.76786e+08
   2457.0  1.77405e+08
   2458.0  1.78025e+08
   2459.0  1.78646e+08
   2460.0  1.79270e+08
   2461.0  1.79895e+08
   2462.0  1.80522e+08
   2463.0  1.81151e+08
   2464.0  1.81782e+08
   2465.0  1.82415e+08
   2466.0  1.83049e+08
   2467.0  1.83686e+08
   2468.0  1.84325e+08
   2469.0  1.84966e+08
   2470.0  1.85610e+08
   2471.0  1.86256e+08
   2472.0  1.86904e+08
   2473.0  1.87555e+08
   2474.0  1.88208e+08
   2475.0  1.88863e+08
   2476.0  1.89520e+08
   2477.0  1.90179e+08
   2478.0  1.90841e+08
   2479.0  1.91504e+08
   2480.0  1.92170e+08
   2481.0  1.92838e+08
   2482.0  1.93507e+08
   2483.0  1.94179e+08
   2484.0  1.94853e+08
   2485.0  1.95529e+08
   2486.0  1.96207e+08
   2487.0  1.96887e+08
   2488.0  1.97569e+08
   2489.0  1.98253e+08
   2490.0  1.98940e+08
   2491.0  1.99629e+08
   2492.0  2.00320e+08
   2493.0  2.01013e+08
   2494.0  2.01708e+08
   2495.0  2.02406e+08
   2496.0  2.03106e+08
   2497.0  2.03808e+08
   2498.0  2.04513e+08
   2499.0  2.05220e+08
   2500.0  2.05930e+08
   2501.0  2.06642e+08
   2502.0  2.07357e+08
   2503.0  2.08074e+08
   2504.0  2.08794e+08
   2505.0  2.09515e+08
   2506.0  2.10240e+08
   2507.0  2.10966e+08
   2508.0  2.11695e+08
   2509.0  2.12427e+08
   2510.0  2.13160e+08
   2511.0  2.13896e+08
   2512.0  2.14634e+08
   2513.0  2.15374e+08
   2514.0  2.16116e+08
   2515.0  2.16861e+08
   2516.0  2.17608e+08
   2517.0  2.18357e+08
   2518.0  2.19109e+08
   2519.0  2.19863e+08
   2520.0  2.20620e+08
   2521.0  2.21379e+08
   2522.0  2.22140e+08
   2523.0  2.22904e+08
   2524.0  2.23671e+08
   2525.0  2.24439e+08
   2526.0  2.25210e+08
   2527.0  2.25984e+08
   2528.0  2.26760e+08
   2529.0  2.27539e+08
   2530.0  2.28320e+08
   2531.0  2.29104e+08
   2532.0  2.29890e+08
   2533.0  2.30678e+08
   2534.0  2.31470e+08
   2535.0  2.32263e+08
   2536.0  2.33059e+08
   2537.0  2.33858e+08
   2538.0  2.34660e+08
   2539.0  2.35464e+08
   2540.0  2.36270e+08
   2541.0  2.37079e+08
   2542.0  2.37891e+08
   2543.0  2.38705e+08
   2544.0  2.39522e+08
   2545.0  2.40342e+08
   2546.0  2.41164e+08
   2547.0  2.41989e+08
   2548.0  2.42817e+08
   2549.0  2.43647e+08
   2550.0  2.44480e+08
   2551.0  2.45316e+08
   2552.0  2.46154e+08
   2553.0  2.46996e+08
   2554.0  2.47840e+08
   2555.0  2.48687e+08
   2556.0  2.49536e+08
   2557.0  2.50388e+08
   2558.0  2.51243e+08
   2559.0  2.52100e+08
   2560.0  2.52960e+08
   2561.0  2.53823e+08
   2562.0  2.54688e+08
   2563.0  2.55556e+08
   2564.0  2.56426e+08
   2565.0  2.57300e+08
   2566.0  2.58176e+08
   2567.0  2.59055e+08
   2568.0  2.59937e+08
   2569.0  2.60822e+08
   2570.0  2.61710e+08
   2571.0  2.62601e+08
   2572.0  2.63495e+08
   2573.0  2.64392e+08
   2574.0  2.65292e+08
   2575.0  2.66195e+08
   2576.0  2.67100e+08
   2577.0  2.68009e+08
   2578.0  2.68920e+08
   2579.0  2.69834e+08
   2580.0  2.70750e+08
   2581.0  2.71669e+08
   2582.0  2.72591e+08
   2583.0  2.73515e+08
   2584.0  2.74443e+08
   2585.0  2.75373e+08
   2586.0  2.76306e+08
   2587.0  2.77243e+08
   2588.0  2.78182e+08
   2589.0  2.79124e+08
   2590.0  2.80070e+08
   2591.0  2.81019e+08
   2592.0  2.81971e+08
   2593.0  2.82926e+08
   2594.0  2.83885e+08
   2595.0  2.84847e+08
   2596.0  2.85811e+08
   2597.0  2.86779e+08
   2598.0  2.87750e+08
   2599.0  2.88723e+08
   2600.0  2.89700e+08
   2601.0  2.90679e+08
   2602.0  2.91662e+08
   2603.0  2.92647e+08
   2604.0  2.93635e+08
   2605.0  2.94627e+08
   2606.0  2.95621e+08
   2607.0  2.96619e+08
   2608.0  2.97619e+08
   2609.0  2.98623e+08
   2610.0  2.99630e+08
   2611.0  3.00640e+08
   2612.0  3.01654e+08
   2613.0  3.02671e+08
   2614.0  3.03691e+08
   2615.0  3.04714e+08
   2616.0  3.05740e+08
   2617.0  3.06770e+08
   2618.0  3.07804e+08
   2619.0  3.08840e+08
   2620.0  3.09880e+08
   2621.0  3.10923e+08
   2622.0  3.11970e+08
   2623.0  3.13019e+08
   2624.0  3.14073e+08
   2625.0  3.15129e+08
   2626.0  3.16189e+08
   2627.0  3.17252e+08
   2628.0  3.18318e+08
   2629.0  3.19387e+08
   2630.0  3.20460e+08
   2631.0  3.21536e+08
   2632.0  3.22615e+08
   2633.0  3.23698e+08
   2634.0  3.24784e+08
   2635.0  3.25873e+08
   2636.0  3.26965e+08
   2637.0  3.28061e+08
   2638.0  3.29161e+08
   2639.0  3.30264e+08
   2640.0  3.31370e+08
   2641.0  3.32480e+08
   2642.0  3.33593e+08
   2643.0  3.34710e+08
   2644.0  3.35831e+08
   2645.0  3.36955e+08
   2646.0  3.38083e+08
   2647.0  3.39214e+08
   2648.0  3.40349e+08
   2649.0  3.41488e+08
   2650.0  3.42630e+08
   2651.0  3.43776e+08
   2652.0  3.44925e+08
   2653.0  3.46078e+08
   2654.0  3.47235e+08
   2655.0  3.48395e+08
   2656.0  3.49559e+08
   2657.0  3.50726e+08
   2658.0  3.51897e+08
   2659.0  3.53072e+08
   2660.0  3.54250e+08
   2661.0  3.55432e+08
   2662.0  3.56617e+08
   2663.0  3.57805e+08
   2664.0  3.58998e+08
   2665.0  3.60194e+08
   2666.0  3.61394e+08
   2667.0  3.62597e+08
   2668.0  3.63804e+08
   2669.0  3.65015e+08
   2670.0  3.66230e+08
   2671.0  3.67449e+08
   2672.0  3.68671e+08
   2673.0  3.69897e+08
   2674.0  3.71128e+08
   2675.0  3.72362e+08
   2676.0  3.73600e+08
   2677.0  3.74841e+08
   2678.0  3.76087e+08
   2679.0  3.77337e+08
   2680.0  3.78590e+08
   2681.0  3.79847e+08
   2682.0  3.81109e+08
   2683.0  3.82374e+08
   2684.0  3.83643e+08
   2685.0  3.84916e+08
   2686.0  3.86193e+08
   2687.0  3.87474e+08
   2688.0  3.88758e+08
   2689.0  3.90047e+08
   2690.0  3.91340e+08
   2691.0  3.92637e+08
   2692.0  3.93938e+08
   2693.0  3.95243e+08
   2694.0  3.96551e+08
   2695.0  3.97864e+08
   2696.0  3.99181e+08
   2697.0  4.00502e+08
   2698.0  4.01827e+08
   2699.0  4.03157e+08
   2700.0  4.04490e+08
   2701.0  4.05827e+08
   2702.0  4.07169e+08
   2703.0  4.08515e+08
   2704.0  4.09864e+08
   2705.0  4.11218e+08
   2706.0  4.12576e+08
   2707.0  4.13939e+08
   2708.0  4.15305e+08
   2709.0  4.16675e+08
   2710.0  4.18050e+08
   2711.0  4.19429e+08
   2712.0  4.20812e+08
   2713.0  4.22199e+08
   2714.0  4.23591e+08
   2715.0  4.24986e+08
   2716.0  4.26386e+08
   2717.0  4.27791e+08
   2718.0  4.29199e+08
   2719.0  4.30612e+08
   2720.0  4.32030e+08
   2721.0  4.33452e+08
   2722.0  4.34878e+08
   2723.0  4.36309e+08
   2724.0  4.37744e+08
   2725.0  4.39184e+08
   2726.0  4.40628e+08
   2727.0  4.42077e+08
   2728.0  4.43530e+08
   2729.0  4.44988e+08
   2730.0  4.46450e+08
   2731.0  4.47917e+08
   2732.0  4.49388e+08
   2733.0  4.50863e+08
   2734.0  4.52344e+08
   2735.0  4.53828e+08
   2736.0  4.55318e+08
   2737.0  4.56811e+08
   2738.0  4.58310e+08
   2739.0  4.59813e+08
   2740.0  4.61320e+08
   2741.0  4.62832e+08
   2742.0  4.64349e+08
   2743.0  4.65870e+08
   2744.0  4.67396e+08
   2745.0  4.68926e+08
   2746.0  4.70461e+08
   2747.0  4.72001e+08
   2748.0  4.73546e+08
   2749.0  4.75096e+08
   2750.0  4.76650e+08
   2751.0  4.78209e+08
   2752.0  4.79773e+08
   2753.0  4.81342e+08
   2754.0  4.82916e+08
   2755.0  4.84495e+08
   2756.0  4.86078e+08
   2757.0  4.87667e+08
   2758.0  4.89260e+08
   2759.0  4.90857e+08
   2760.0  4.92460e+08
   2761.0  4.94067e+08
   2762.0  4.95679e+08
   2763.0  4.97296e+08
   2764.0  4.98918e+08
   2765.0  5.00544e+08
   2766.0  5.02175e+08
   2767.0  5.03812e+08
   2768.0  5.05453e+08
   2769.0  5.07099e+08
   2770.0  5.08750e+08
   2771.0  5.10406e+08
   2772.0  5.12067e+08
   2773.0  5.13734e+08
   2774.0  5.15405e+08
   2775.0  5.17081e+08
   2776.0  5.18763e+08
   2777.0  5.20449e+08
   2778.0  5.22141e+08
   2779.0  5.23838e+08
   2780.0  5.25540e+08
   2781.0  5.27247e+08
   2782.0  5.28960e+08
   2783.0  5.30677e+08
   2784.0  5.32400e+08
   2785.0  5.34128e+08
   2786.0  5.35862e+08
   2787.0  5.37601e+08
   2788.0  5.39345e+08
   2789.0  5.41095e+08
   2790.0  5.42850e+08
   2791.0  5.44611e+08
   2792.0  5.46377e+08
   2793.0  5.48149e+08
   2794.0  5.49926e+08
   2795.0  5.51708e+08
   2796.0  5.53496e+08
   2797.0  5.55289e+08
   2798.0  5.57088e+08
   2799.0  5.58891e+08
   2800.0  5.60700e+08
   2801.0  5.62514e+08
   2802.0  5.64333e+08
   2803.0  5.66157e+08
   2804.0  5.67987e+08
   2805.0  5.69822e+08
   2806.0  5.71662e+08
   2807.0  5.73508e+08
   2808.0  5.75360e+08
   2809.0  5.77217e+08
   2810.0  5.79080e+08
   2811.0  5.80949e+08
   2812.0  5.82824e+08
   2813.0  5.84704e+08
   2814.0  5.86590e+08
   2815.0  5.88482e+08
   2816.0  5.90380e+08
   2817.0  5.92284e+08
   2818.0  5.94194e+08
   2819.0  5.96109e+08
   2820.0  5.98030e+08
   2821.0  5.99957e+08
   2822.0  6.01889e+08
   2823.0  6.03828e+08
   2824.0  6.05772e+08
   2825.0  6.07722e+08
   2826.0  6.09678e+08
   2827.0  6.11640e+08
   2828.0  6.13607e+08
   2829.0  6.15581e+08
   2830.0  6.17560e+08
   2831.0  6.19545e+08
   2832.0  6.21536e+08
   2833.0  6.23533e+08
   2834.0  6.25536e+08
   2835.0  6.27545e+08
   2836.0  6.29560e+08
   2837.0  6.31581e+08
   2838.0  6.33608e+08
   2839.0  6.35641e+08
   2840.0  6.37680e+08
   2841.0  6.39725e+08
   2842.0  6.41776e+08
   2843.0  6.43834e+08
   2844.0  6.45898e+08
   2845.0  6.47967e+08
   2846.0  6.50043e+08
   2847.0  6.52126e+08
   2848.0  6.54214e+08
   2849.0  6.56309e+08
   2850.0  6.58410e+08
   2851.0  6.60517e+08
   2852.0  6.62631e+08
   2853.0  6.64751e+08
   2854.0  6.66878e+08
   2855.0  6.69011e+08
   2856.0  6.71150e+08
   2857.0  6.73295e+08
   2858.0  6.75447e+08
   2859.0  6.77605e+08
   2860.0  6.79770e+08
   2861.0  6.81941e+08
   2862.0  6.84118e+08
   2863.0  6.86302e+08
   2864.0  6.88492e+08
   2865.0  6.90689e+08
   2866.0  6.92892e+08
   2867.0  6.95102e+08
   2868.0  6.97318e+08
   2869.0  6.99541e+08
   2870.0  7.01770e+08
   2871.0  7.04006e+08
   2872.0  7.06248e+08
   2873.0  7.08497e+08
   2874.0  7.10753e+08
   2875.0  7.13015e+08
   2876.0  7.15285e+08
   2877.0  7.17561e+08
   2878.0  7.19844e+08
   2879.0  7.22133e+08
   2880.0  7.24430e+08
   2881.0  7.26734e+08
   2882.0  7.29044e+08
   2883.0  7.31362e+08
   2884.0  7.33687e+08
   2885.0  7.36018e+08
   2886.0  7.38357e+08
   2887.0  7.40702e+08
   2888.0  7.43054e+08
   2889.0  7.45414e+08
   2890.0  7.47780e+08
   2891.0  7.50153e+08
   2892.0  7.52533e+08
   2893.0  7.54921e+08
   2894.0  7.57315e+08
   2895.0  7.59716e+08
   2896.0  7.62125e+08
   2897.0  7.64540e+08
   2898.0  7.66963e+08
   2899.0  7.69393e+08
   2900.0  7.71830e+08
   2901.0  7.74274e+08
   2902.0  7.76726e+08
   2903.0  7.79185e+08
   2904.0  7.81651e+08
   2905.0  7.84125e+08
   2906.0  7.86605e+08
   2907.0  7.89093e+08
   2908.0  7.91588e+08
   2909.0  7.94091e+08
   2910.0  7.96600e+08
   2911.0  7.99117e+08
   2912.0  8.01641e+08
   2913.0  8.04172e+08
   2914.0  8.06710e+08
   2915.0  8.09256e+08
   2916.0  8.11810e+08
   2917.0  8.14371e+08
   2918.0  8.16939e+08
   2919.0  8.19516e+08
   2920.0  8.22100e+08
   2921.0  8.24692e+08
   2922.0  8.27292e+08
   2923.0  8.29899e+08
   2924.0  8.32515e+08
   2925.0  8.35138e+08
   2926.0  8.37769e+08
   2927.0  8.40407e+08
   2928.0  8.43054e+08
   2929.0  8.45708e+08
   2930.0  8.48370e+08
   2931.0  8.51040e+08
   2932.0  8.53717e+08
   2933.0  8.56402e+08
   2934.0  8.59096e+08
   2935.0  8.61796e+08
   2936.0  8.64505e+08
   2937.0  8.67222e+08
   2938.0  8.69947e+08
   2939.0  8.72679e+08
   2940.0  8.75420e+08
   2941.0  8.78169e+08
   2942.0  8.80925e+08
   2943.0  8.83690e+08
   2944.0  8.86463e+08
   2945.0  8.89244e+08
   2946.0  8.92033e+08
   2947.0  8.94830e+08
   2948.0  8.97635e+08
   2949.0  9.00449e+08
   2950.0  9.03270e+08
   2951.0  9.06100e+08
   2952.0  9.08937e+08
   2953.0  9.11783e+08
   2954.0  9.14638e+08
   2955.0  9.17500e+08
   2956.0  9.20371e+08
   2957.0  9.23251e+08
   2958.0  9.26138e+08
   2959.0  9.29035e+08
   2960.0  9.31940e+08
   2961.0  9.34854e+08
   2962.0  9.37776e+08
   2963.0  9.40707e+08
   2964.0  9.43647e+08
   2965.0  9.46595e+08
   2966.0  9.49553e+08
   2967.0  9.52519e+08
   2968.0  9.55494e+08
   2969.0  9.58477e+08
   2970.0  9.61470e+08
   2971.0  9.64471e+08
   2972.0  9.67482e+08
   2973.0  9.70500e+08
   2974.0  9.73528e+08
   2975.0  9.76563e+08
   2976.0  9.79607e+08
   2977.0  9.82659e+08
   2978.0  9.85718e+08
   2979.0  9.88785e+08
   2980.0  9.91860e+08
   2981.0  9.94942e+08
   2982.0  9.98032e+08
   2983.0  1.00113e+09
   2984.0  1.00424e+09
   2985.0  1.00736e+09
   2986.0  1.01048e+09
   2987.0  1.01362e+09
   2988.0  1.01677e+09
   2989.0  1.01993e+09
   2990.0  1.02310e+09
   2991.0  1.02628e+09
   2992.0  1.02948e+09
   2993.0  1.03269e+09
   2994.0  1.03591e+09
   2995.0  1.03913e+09
   2996.0  1.04237e+09
   2997.0  1.04562e+09
   2998.0  1.04887e+09
   2999.0  1.05213e+09
   3000.0  1.05540e+09
   3001.0  1.05867e+09
   3002.0  1.06196e+09
   3003.0  1.06524e+09
   3004.0  1.06854e+09
   3005.0  1.07184e+09
   3006.0  1.07515e+09
   3007.0  1.07848e+09
   3008.0  1.08181e+09
   3009.0  1.08515e+09
   3010.0  1.08850e+09
   3011.0  1.09186e+09
   3012.0  1.09524e+09
   3013.0  1.09862e+09
   3014.0  1.10202e+09
   3015.0  1.10542e+09
   3016.0  1.10884e+09
   3017.0  1.11226e+09
   3018.0  1.11570e+09
   3019.0  1.11915e+09
   3020.0  1.12260e+09
   3021.0  1.12606e+09
   3022.0  1.12954e+09
   3023.0  1.13302e+09
   3024.0  1.13651e+09
   3025.0  1.14002e+09
   3026.0  1.14353e+09
   3027.0  1.14705e+09
   3028.0  1.15059e+09
   3029.0  1.15414e+09
   3030.0  1.15770e+09
   3031.0  1.16127e+09
   3032.0  1.16486e+09
   3033.0  1.16845e+09
   3034.0  1.17206e+09
   3035.0  1.17568e+09
   3036.0  1.17931e+09
   3037.0  1.18294e+09
   3038.0  1.18659e+09
   3039.0  1.19024e+09
   3040.0  1.19390e+09
   3041.0  1.19757e+09
   3042.0  1.20124e+09
   3043.0  1.20493e+09
   3044.0  1.20862e+09
   3045.0  1.21232e+09
   3046.0  1.21603e+09
   3047.0  1.21976e+09
   3048.0  1.22349e+09
   3049.0  1.22724e+09
   3050.0  1.23100e+09
   3051.0  1.23477e+09
   3052.0  1.23856e+09
   3053.0  1.24236e+09
   3054.0  1.24618e+09
   3055.0  1.25000e+09
   3056.0  1.25384e+09
   3057.0  1.25769e+09
   3058.0  1.26155e+09
   3059.0  1.26542e+09
   3060.0  1.26930e+09
   3061.0  1.27319e+09
   3062.0  1.27709e+09
   3063.0  1.28101e+09
   3064.0  1.28493e+09
   3065.0  1.28886e+09
   3066.0  1.29281e+09
   3067.0  1.29677e+09
   3068.0  1.30073e+09
   3069.0  1.30471e+09
   3070.0  1.30870e+09
   3071.0  1.31270e+09
   3072.0  1.31671e+09
   3073.0  1.32074e+09
   3074.0  1.32477e+09
   3075.0  1.32882e+09
   3076.0  1.33287e+09
   3077.0  1.33694e+09
   3078.0  1.34102e+09
   3079.0  1.34510e+09
   3080.0  1.34920e+09
   3081.0  1.35331e+09
   3082.0  1.35743e+09
   3083.0  1.36156e+09
   3084.0  1.36570e+09
   3085.0  1.36985e+09
   3086.0  1.37401e+09
   3087.0  1.37819e+09
   3088.0  1.38238e+09
   3089.0  1.38658e+09
   3090.0  1.39080e+09
   3091.0  1.39503e+09
   3092.0  1.39928e+09
   3093.0  1.40354e+09
   3094.0  1.40781e+09
   3095.0  1.41209e+09
   3096.0  1.41639e+09
   3097.0  1.42070e+09
   3098.0  1.42502e+09
   3099.0  1.42936e+09
   3100.0  1.43370e+09
   3101.0  1.43806e+09
   3102.0  1.44242e+09
   3103.0  1.44680e+09
   3104.0  1.45119e+09
   3105.0  1.45559e+09
   3106.0  1.46001e+09
   3107.0  1.46444e+09
   3108.0  1.46888e+09
   3109.0  1.47333e+09
   3110.0  1.47780e+09
   3111.0  1.48228e+09
   3112.0  1.48678e+09
   3113.0  1.49129e+09
   3114.0  1.49581e+09
   3115.0  1.50035e+09
   3116.0  1.50489e+09
   3117.0  1.50945e+09
   3118.0  1.51402e+09
   3119.0  1.51861e+09
   3120.0  1.52320e+09
   3121.0  1.52780e+09
   3122.0  1.53242e+09
   3123.0  1.53705e+09
   3124.0  1.54169e+09
   3125.0  1.54634e+09
   3126.0  1.55100e+09
   3127.0  1.55568e+09
   3128.0  1.56037e+09
   3129.0  1.56508e+09
   3130.0  1.56980e+09
   3131.0  1.57454e+09
   3132.0  1.57929e+09
   3133.0  1.58406e+09
   3134.0  1.58884e+09
   3135.0  1.59363e+09
   3136.0  1.59844e+09
   3137.0  1.60326e+09
   3138.0  1.60809e+09
   3139.0  1.61294e+09
   3140.0  1.61780e+09
   3141.0  1.62267e+09
   3142.0  1.62755e+09
   3143.0  1.63245e+09
   3144.0  1.63736e+09
   3145.0  1.64228e+09
   3146.0  1.64721e+09
   3147.0  1.65216e+09
   3148.0  1.65713e+09
   3149.0  1.66210e+09
   3150.0  1.66710e+09
   3151.0  1.67211e+09
   3152.0  1.67714e+09
   3153.0  1.68218e+09
   3154.0  1.68724e+09
   3155.0  1.69231e+09
   3156.0  1.69740e+09
   3157.0  1.70251e+09
   3158.0  1.70762e+09
   3159.0  1.71275e+09
   3160.0  1.71790e+09
   3161.0  1.72306e+09
   3162.0  1.72823e+09
   3163.0  1.73342e+09
   3164.0  1.73862e+09
   3165.0  1.74383e+09
   3166.0  1.74906e+09
   3167.0  1.75430e+09
   3168.0  1.75955e+09
   3169.0  1.76482e+09
   3170.0  1.77010e+09
   3171.0  1.77539e+09
   3172.0  1.78070e+09
   3173.0  1.78602e+09
   3174.0  1.79136e+09
   3175.0  1.79671e+09
   3176.0  1.80208e+09
   3177.0  1.80746e+09
   3178.0  1.81286e+09
   3179.0  1.81827e+09
   3180.0  1.82370e+09
   3181.0  1.82915e+09
   3182.0  1.83461e+09
   3183.0  1.84009e+09
   3184.0  1.84559e+09
   3185.0  1.85111e+09
   3186.0  1.85663e+09
   3187.0  1.86218e+09
   3188.0  1.86774e+09
   3189.0  1.87331e+09
   3190.0  1.87890e+09
   3191.0  1.88450e+09
   3192.0  1.89012e+09
   3193.0  1.89575e+09
   3194.0  1.90140e+09
   3195.0  1.90706e+09
   3196.0  1.91273e+09
   3197.0  1.91843e+09
   3198.0  1.92413e+09
   3199.0  1.92986e+09
   3200.0  1.93560e+09
   3201.0  1.94136e+09
   3202.0  1.94713e+09
   3203.0  1.95292e+09
   3204.0  1.95873e+09
   3205.0  1.96455e+09
   3206.0  1.97039e+09
   3207.0  1.97625e+09
   3208.0  1.98211e+09
   3209.0  1.98800e+09
   3210.0  1.99390e+09
   3211.0  1.99982e+09
   3212.0  2.00575e+09
   3213.0  2.01169e+09
   3214.0  2.01765e+09
   3215.0  2.02363e+09
   3216.0  2.02963e+09
   3217.0  2.03565e+09
   3218.0  2.04168e+09
   3219.0  2.04773e+09
   3220.0  2.05380e+09
   3221.0  2.05989e+09
   3222.0  2.06600e+09
   3223.0  2.07213e+09
   3224.0  2.07827e+09
   3225.0  2.08444e+09
   3226.0  2.09062e+09
   3227.0  2.09682e+09
   3228.0  2.10303e+09
   3229.0  2.10926e+09
   3230.0  2.11550e+09
   3231.0  2.12176e+09
   3232.0  2.12803e+09
   3233.0  2.13432e+09
   3234.0  2.14062e+09
   3235.0  2.14694e+09
   3236.0  2.15328e+09
   3237.0  2.15963e+09
   3238.0  2.16600e+09
   3239.0  2.17239e+09
   3240.0  2.17880e+09
   3241.0  2.18523e+09
   3242.0  2.19167e+09
   3243.0  2.19814e+09
   3244.0  2.20462e+09
   3245.0  2.21112e+09
   3246.0  2.21764e+09
   3247.0  2.22418e+09
   3248.0  2.23074e+09
   3249.0  2.23731e+09
   3250.0  2.24390e+09
   3251.0  2.25051e+09
   3252.0  2.25713e+09
   3253.0  2.26378e+09
   3254.0  2.27044e+09
   3255.0  2.27712e+09
   3256.0  2.28381e+09
   3257.0  2.29053e+09
   3258.0  2.29727e+09
   3259.0  2.30402e+09
   3260.0  2.31080e+09
   3261.0  2.31760e+09
   3262.0  2.32441e+09
   3263.0  2.33125e+09
   3264.0  2.33810e+09
   3265.0  2.34497e+09
   3266.0  2.35186e+09
   3267.0  2.35877e+09
   3268.0  2.36570e+09
   3269.0  2.37264e+09
   3270.0  2.37960e+09
   3271.0  2.38658e+09
   3272.0  2.39357e+09
   3273.0  2.40058e+09
   3274.0  2.40761e+09
   3275.0  2.41465e+09
   3276.0  2.42172e+09
   3277.0  2.42881e+09
   3278.0  2.43592e+09
   3279.0  2.44305e+09
   3280.0  2.45020e+09
   3281.0  2.45738e+09
   3282.0  2.46457e+09
   3283.0  2.47179e+09
   3284.0  2.47904e+09
   3285.0  2.48630e+09
   3286.0  2.49358e+09
   3287.0  2.50088e+09
   3288.0  2.50820e+09
   3289.0  2.51554e+09
   3290.0  2.52290e+09
   3291.0  2.53027e+09
   3292.0  2.53767e+09
   3293.0  2.54508e+09
   3294.0  2.55250e+09
   3295.0  2.55995e+09
   3296.0  2.56742e+09
   3297.0  2.57491e+09
   3298.0  2.58242e+09
   3299.0  2.58995e+09
   3300.0  2.59750e+09
   3301.0  2.60508e+09
   3302.0  2.61267e+09
   3303.0  2.62029e+09
   3304.0  2.62793e+09
   3305.0  2.63560e+09
   3306.0  2.64328e+09
   3307.0  2.65098e+09
   3308.0  2.65870e+09
   3309.0  2.66644e+09
   3310.0  2.67420e+09
   3311.0  2.68198e+09
   3312.0  2.68977e+09
   3313.0  2.69759e+09
   3314.0  2.70542e+09
   3315.0  2.71328e+09
   3316.0  2.72116e+09
   3317.0  2.72906e+09
   3318.0  2.73698e+09
   3319.0  2.74493e+09
   3320.0  2.75290e+09
   3321.0  2.76090e+09
   3322.0  2.76892e+09
   3323.0  2.77696e+09
   3324.0  2.78503e+09
   3325.0  2.79312e+09
   3326.0  2.80124e+09
   3327.0  2.80937e+09
   3328.0  2.81753e+09
   3329.0  2.82570e+09
   3330.0  2.83390e+09
   3331.0  2.84212e+09
   3332.0  2.85035e+09
   3333.0  2.85861e+09
   3334.0  2.86688e+09
   3335.0  2.87518e+09
   3336.0  2.88350e+09
   3337.0  2.89184e+09
   3338.0  2.90021e+09
   3339.0  2.90859e+09
   3340.0  2.91700e+09
   3341.0  2.92543e+09
   3342.0  2.93389e+09
   3343.0  2.94237e+09
   3344.0  2.95087e+09
   3345.0  2.95940e+09
   3346.0  2.96795e+09
   3347.0  2.97653e+09
   3348.0  2.98513e+09
   3349.0  2.99375e+09
   3350.0  3.00240e+09
   3351.0  3.01107e+09
   3352.0  3.01977e+09
   3353.0  3.02849e+09
   3354.0  3.03724e+09
   3355.0  3.04601e+09
   3356.0  3.05480e+09
   3357.0  3.06361e+09
   3358.0  3.07245e+09
   3359.0  3.08132e+09
   3360.0  3.09020e+09
   3361.0  3.09911e+09
   3362.0  3.10804e+09
   3363.0  3.11699e+09
   3364.0  3.12596e+09
   3365.0  3.13496e+09
   3366.0  3.14398e+09
   3367.0  3.15303e+09
   3368.0  3.16209e+09
   3369.0  3.17119e+09
   3370.0  3.18030e+09
   3371.0  3.18944e+09
   3372.0  3.19860e+09
   3373.0  3.20779e+09
   3374.0  3.21700e+09
   3375.0  3.22623e+09
   3376.0  3.23549e+09
   3377.0  3.24478e+09
   3378.0  3.25409e+09
   3379.0  3.26343e+09
   3380.0  3.27280e+09
   3381.0  3.28219e+09
   3382.0  3.29161e+09
   3383.0  3.30106e+09
   3384.0  3.31053e+09
   3385.0  3.32003e+09
   3386.0  3.32956e+09
   3387.0  3.33911e+09
   3388.0  3.34868e+09
   3389.0  3.35828e+09
   3390.0  3.36790e+09
   3391.0  3.37755e+09
   3392.0  3.38722e+09
   3393.0  3.39691e+09
   3394.0  3.40663e+09
   3395.0  3.41638e+09
   3396.0  3.42615e+09
   3397.0  3.43595e+09
   3398.0  3.44577e+09
   3399.0  3.45562e+09
   3400.0  3.46550e+09
   3401.0  3.47541e+09
   3402.0  3.48534e+09
   3403.0  3.49530e+09
   3404.0  3.50529e+09
   3405.0  3.51531e+09
   3406.0  3.52535e+09
   3407.0  3.53542e+09
   3408.0  3.54552e+09
   3409.0  3.55565e+09
   3410.0  3.56580e+09
   3411.0  3.57598e+09
   3412.0  3.58619e+09
   3413.0  3.59642e+09
   3414.0  3.60668e+09
   3415.0  3.61697e+09
   3416.0  3.62728e+09
   3417.0  3.63762e+09
   3418.0  3.64799e+09
   3419.0  3.65838e+09
   3420.0  3.66880e+09
   3421.0  3.67925e+09
   3422.0  3.68972e+09
   3423.0  3.70022e+09
   3424.0  3.71074e+09
   3425.0  3.72130e+09
   3426.0  3.73188e+09
   3427.0  3.74249e+09
   3428.0  3.75313e+09
   3429.0  3.76380e+09
   3430.0  3.77450e+09
   3431.0  3.78523e+09
   3432.0  3.79599e+09
   3433.0  3.80678e+09
   3434.0  3.81760e+09
   3435.0  3.82844e+09
   3436.0  3.83932e+09
   3437.0  3.85022e+09
   3438.0  3.86115e+09
   3439.0  3.87211e+09
   3440.0  3.88310e+09
   3441.0  3.89411e+09
   3442.0  3.90515e+09
   3443.0  3.91622e+09
   3444.0  3.92732e+09
   3445.0  3.93844e+09
   3446.0  3.94959e+09
   3447.0  3.96078e+09
   3448.0  3.97199e+09
   3449.0  3.98323e+09
   3450.0  3.99450e+09
   3451.0  4.00580e+09
   3452.0  4.01713e+09
   3453.0  4.02850e+09
   3454.0  4.03989e+09
   3455.0  4.05131e+09
   3456.0  4.06277e+09
   3457.0  4.07426e+09
   3458.0  4.08577e+09
   3459.0  4.09732e+09
   3460.0  4.10890e+09
   3461.0  4.12051e+09
   3462.0  4.13215e+09
   3463.0  4.14382e+09
   3464.0  4.15553e+09
   3465.0  4.16726e+09
   3466.0  4.17903e+09
   3467.0  4.19083e+09
   3468.0  4.20265e+09
   3469.0  4.21451e+09
   3470.0  4.22640e+09
   3471.0  4.23832e+09
   3472.0  4.25027e+09
   3473.0  4.26225e+09
   3474.0  4.27426e+09
   3475.0  4.28631e+09
   3476.0  4.29838e+09
   3477.0  4.31049e+09
   3478.0  4.32263e+09
   3479.0  4.33480e+09
   3480.0  4.34700e+09
   3481.0  4.35923e+09
   3482.0  4.37150e+09
   3483.0  4.38380e+09
   3484.0  4.39613e+09
   3485.0  4.40849e+09
   3486.0  4.42089e+09
   3487.0  4.43332e+09
   3488.0  4.44578e+09
   3489.0  4.45827e+09
   3490.0  4.47080e+09
   3491.0  4.48336e+09
   3492.0  4.49595e+09
   3493.0  4.50858e+09
   3494.0  4.52124e+09
   3495.0  4.53393e+09
   3496.0  4.54666e+09
   3497.0  4.55942e+09
   3498.0  4.57221e+09
   3499.0  4.58504e+09
   3500.0  4.59790e+09
