# ExoMol CH4 partition-function data
  temp(K)       21111
      3.0  5.05900e+00
      6.0  5.74220e+00
      9.0  6.85210e+00
     12.0  8.17900e+00
     15.0  9.70830e+00
     18.0  1.14519e+01
     21.0  1.34172e+01
     24.0  1.56024e+01
     27.0  1.79987e+01
     30.0  2.05935e+01
     33.0  2.33725e+01
     36.0  2.63216e+01
     39.0  2.94279e+01
     42.0  3.26798e+01
     45.0  3.60674e+01
     48.0  3.95824e+01
     51.0  4.32176e+01
     54.0  4.69672e+01
     57.0  5.08262e+01
     60.0  5.47904e+01
     63.0  5.88562e+01
     66.0  6.30204e+01
     69.0  6.72803e+01
     72.0  7.16334e+01
     75.0  7.60777e+01
     78.0  8.06110e+01
     81.0  8.52315e+01
     84.0  8.99377e+01
     87.0  9.47278e+01
     90.0  9.96004e+01
     93.0  1.04554e+02
     96.0  1.09588e+02
     99.0  1.14700e+02
    102.0  1.19889e+02
    105.0  1.25155e+02
    108.0  1.30496e+02
    111.0  1.35911e+02
    114.0  1.41399e+02
    117.0  1.46959e+02
    120.0  1.52591e+02
    123.0  1.58293e+02
    126.0  1.64065e+02
    129.0  1.69906e+02
    132.0  1.75814e+02
    135.0  1.81790e+02
    138.0  1.87832e+02
    141.0  1.93940e+02
    144.0  2.00113e+02
    147.0  2.06351e+02
    150.0  2.12653e+02
    153.0  2.19018e+02
    156.0  2.25446e+02
    159.0  2.31936e+02
    162.0  2.38487e+02
    165.0  2.45100e+02
    168.0  2.51774e+02
    171.0  2.58507e+02
    174.0  2.65301e+02
    177.0  2.72154e+02
    180.0  2.79066e+02
    183.0  2.86037e+02
    186.0  2.93066e+02
    189.0  3.00154e+02
    192.0  3.07299e+02
    195.0  3.14501e+02
    198.0  3.21761e+02
    201.0  3.29078e+02
    204.0  3.36452e+02
    207.0  3.43883e+02
    210.0  3.51370e+02
    213.0  3.58914e+02
    216.0  3.66515e+02
    219.0  3.74172e+02
    222.0  3.81885e+02
    225.0  3.89655e+02
    228.0  3.97482e+02
    231.0  4.05365e+02
    234.0  4.13304e+02
    237.0  4.21301e+02
    240.0  4.29354e+02
    243.0  4.37465e+02
    246.0  4.45633e+02
    249.0  4.53858e+02
    252.0  4.62141e+02
    255.0  4.70483e+02
    258.0  4.78882e+02
    261.0  4.87341e+02
    264.0  4.95859e+02
    267.0  5.04436e+02
    270.0  5.13073e+02
    273.0  5.21770e+02
    276.0  5.30529e+02
    279.0  5.39348e+02
    282.0  5.48230e+02
    285.0  5.57173e+02
    288.0  5.66180e+02
    291.0  5.75250e+02
    294.0  5.84385e+02
    297.0  5.93584e+02
    300.0  6.02848e+02
    303.0  6.12179e+02
    306.0  6.21576e+02
    309.0  6.31041e+02
    312.0  6.40574e+02
    315.0  6.50176e+02
    318.0  6.59847e+02
    321.0  6.69589e+02
    324.0  6.79403e+02
    327.0  6.89289e+02
    330.0  6.99247e+02
    333.0  7.09280e+02
    336.0  7.19388e+02
    339.0  7.29571e+02
    342.0  7.39831e+02
    345.0  7.50168e+02
    348.0  7.60584e+02
    351.0  7.71079e+02
    354.0  7.81655e+02
    357.0  7.92312e+02
    360.0  8.03052e+02
    363.0  8.13876e+02
    366.0  8.24784e+02
    369.0  8.35778e+02
    372.0  8.46858e+02
    375.0  8.58027e+02
    378.0  8.69284e+02
    381.0  8.80631e+02
    384.0  8.92070e+02
    387.0  9.03601e+02
    390.0  9.15226e+02
    393.0  9.26945e+02
    396.0  9.38760e+02
    399.0  9.50673e+02
    402.0  9.62684e+02
    405.0  9.74794e+02
    408.0  9.87005e+02
    411.0  9.99319e+02
    414.0  1.01174e+03
    417.0  1.02426e+03
    420.0  1.03688e+03
    423.0  1.04962e+03
    426.0  1.06246e+03
    429.0  1.07542e+03
    432.0  1.08848e+03
    435.0  1.10166e+03
    438.0  1.11495e+03
    441.0  1.12836e+03
    444.0  1.14188e+03
    447.0  1.15552e+03
    450.0  1.16928e+03
    453.0  1.18317e+03
    456.0  1.19717e+03
    459.0  1.21130e+03
    462.0  1.22556e+03
    465.0  1.23994e+03
    468.0  1.25445e+03
    471.0  1.26909e+03
    474.0  1.28386e+03
    477.0  1.29877e+03
    480.0  1.31381e+03
    483.0  1.32898e+03
    486.0  1.34430e+03
    489.0  1.35975e+03
    492.0  1.37535e+03
    495.0  1.39108e+03
    498.0  1.40697e+03
    501.0  1.42299e+03
    504.0  1.43917e+03
    507.0  1.45549e+03
    510.0  1.47197e+03
    513.0  1.48860e+03
    516.0  1.50538e+03
    519.0  1.52232e+03
    522.0  1.53942e+03
    525.0  1.55667e+03
    528.0  1.57409e+03
    531.0  1.59167e+03
    534.0  1.60942e+03
    537.0  1.62734e+03
    540.0  1.64542e+03
    543.0  1.66367e+03
    546.0  1.68210e+03
    549.0  1.70070e+03
    552.0  1.71948e+03
    555.0  1.73843e+03
    558.0  1.75757e+03
    561.0  1.77688e+03
    564.0  1.79639e+03
    567.0  1.81607e+03
    570.0  1.83595e+03
    573.0  1.85602e+03
    576.0  1.87628e+03
    579.0  1.89673e+03
    582.0  1.91738e+03
    585.0  1.93823e+03
    588.0  1.95927e+03
    591.0  1.98053e+03
    594.0  2.00198e+03
    597.0  2.02365e+03
    600.0  2.04552e+03
    603.0  2.06760e+03
    606.0  2.08990e+03
    609.0  2.11242e+03
    612.0  2.13515e+03
    615.0  2.15810e+03
    618.0  2.18128e+03
    621.0  2.20468e+03
    624.0  2.22831e+03
    627.0  2.25216e+03
    630.0  2.27625e+03
    633.0  2.30058e+03
    636.0  2.32514e+03
    639.0  2.34994e+03
    642.0  2.37499e+03
    645.0  2.40028e+03
    648.0  2.42581e+03
    651.0  2.45160e+03
    654.0  2.47764e+03
    657.0  2.50393e+03
    660.0  2.53048e+03
    663.0  2.55729e+03
    666.0  2.58436e+03
    669.0  2.61170e+03
    672.0  2.63931e+03
    675.0  2.66719e+03
    678.0  2.69534e+03
    681.0  2.72376e+03
    684.0  2.75247e+03
    687.0  2.78146e+03
    690.0  2.81073e+03
    693.0  2.84029e+03
    696.0  2.87014e+03
    699.0  2.90029e+03
    702.0  2.93073e+03
    705.0  2.96147e+03
    708.0  2.99252e+03
    711.0  3.02387e+03
    714.0  3.05553e+03
    717.0  3.08749e+03
    720.0  3.11978e+03
    723.0  3.15238e+03
    726.0  3.18531e+03
    729.0  3.21855e+03
    732.0  3.25213e+03
    735.0  3.28604e+03
    738.0  3.32028e+03
    741.0  3.35486e+03
    744.0  3.38978e+03
    747.0  3.42504e+03
    750.0  3.46065e+03
    753.0  3.49661e+03
    756.0  3.53293e+03
    759.0  3.56960e+03
    762.0  3.60664e+03
    765.0  3.64404e+03
    768.0  3.68181e+03
    771.0  3.71995e+03
    774.0  3.75847e+03
    777.0  3.79737e+03
    780.0  3.83665e+03
    783.0  3.87632e+03
    786.0  3.91637e+03
    789.0  3.95683e+03
    792.0  3.99768e+03
    795.0  4.03894e+03
    798.0  4.08060e+03
    801.0  4.12267e+03
    804.0  4.16515e+03
    807.0  4.20806e+03
    810.0  4.25139e+03
    813.0  4.29514e+03
    816.0  4.33932e+03
    819.0  4.38394e+03
    822.0  4.42900e+03
    825.0  4.47450e+03
    828.0  4.52045e+03
    831.0  4.56685e+03
    834.0  4.61371e+03
    837.0  4.66103e+03
    840.0  4.70881e+03
    843.0  4.75706e+03
    846.0  4.80579e+03
    849.0  4.85499e+03
    852.0  4.90468e+03
    855.0  4.95486e+03
    858.0  5.00553e+03
    861.0  5.05669e+03
    864.0  5.10836e+03
    867.0  5.16054e+03
    870.0  5.21322e+03
    873.0  5.26643e+03
    876.0  5.32015e+03
    879.0  5.37440e+03
    882.0  5.42918e+03
    885.0  5.48450e+03
    888.0  5.54036e+03
    891.0  5.59677e+03
    894.0  5.65373e+03
    897.0  5.71125e+03
    900.0  5.76933e+03
    903.0  5.82797e+03
    906.0  5.88719e+03
    909.0  5.94699e+03
    912.0  6.00737e+03
    915.0  6.06834e+03
    918.0  6.12991e+03
    921.0  6.19208e+03
    924.0  6.25485e+03
    927.0  6.31824e+03
    930.0  6.38224e+03
    933.0  6.44687e+03
    936.0  6.51212e+03
    939.0  6.57801e+03
    942.0  6.64455e+03
    945.0  6.71172e+03
    948.0  6.77956e+03
    951.0  6.84805e+03
    954.0  6.91721e+03
    957.0  6.98704e+03
    960.0  7.05754e+03
    963.0  7.12873e+03
    966.0  7.20062e+03
    969.0  7.27319e+03
    972.0  7.34648e+03
    975.0  7.42047e+03
    978.0  7.49518e+03
    981.0  7.57061e+03
    984.0  7.64677e+03
    987.0  7.72367e+03
    990.0  7.80131e+03
    993.0  7.87970e+03
    996.0  7.95885e+03
    999.0  8.03877e+03
   1002.0  8.11945e+03
   1005.0  8.20091e+03
   1008.0  8.28316e+03
   1011.0  8.36620e+03
   1014.0  8.45004e+03
   1017.0  8.53469e+03
   1020.0  8.62015e+03
   1023.0  8.70644e+03
   1026.0  8.79355e+03
   1029.0  8.88150e+03
   1032.0  8.97030e+03
   1035.0  9.05994e+03
   1038.0  9.15045e+03
   1041.0  9.24183e+03
   1044.0  9.33408e+03
   1047.0  9.42721e+03
   1050.0  9.52124e+03
   1053.0  9.61617e+03
   1056.0  9.71200e+03
   1059.0  9.80875e+03
   1062.0  9.90643e+03
   1065.0  1.00050e+04
   1068.0  1.01046e+04
   1071.0  1.02051e+04
   1074.0  1.03065e+04
   1077.0  1.04090e+04
   1080.0  1.05124e+04
   1083.0  1.06168e+04
   1086.0  1.07221e+04
   1089.0  1.08285e+04
   1092.0  1.09359e+04
   1095.0  1.10443e+04
   1098.0  1.11538e+04
   1101.0  1.12642e+04
   1104.0  1.13758e+04
   1107.0  1.14883e+04
   1110.0  1.16020e+04
   1113.0  1.17167e+04
   1116.0  1.18325e+04
   1119.0  1.19494e+04
   1122.0  1.20675e+04
   1125.0  1.21866e+04
   1128.0  1.23068e+04
   1131.0  1.24282e+04
   1134.0  1.25507e+04
   1137.0  1.26744e+04
   1140.0  1.27993e+04
   1143.0  1.29253e+04
   1146.0  1.30525e+04
   1149.0  1.31809e+04
   1152.0  1.33105e+04
   1155.0  1.34413e+04
   1158.0  1.35734e+04
   1161.0  1.37067e+04
   1164.0  1.38412e+04
   1167.0  1.39770e+04
   1170.0  1.41141e+04
   1173.0  1.42525e+04
   1176.0  1.43921e+04
   1179.0  1.45331e+04
   1182.0  1.46753e+04
   1185.0  1.48189e+04
   1188.0  1.49638e+04
   1191.0  1.51101e+04
   1194.0  1.52578e+04
   1197.0  1.54068e+04
   1200.0  1.55572e+04
   1203.0  1.57090e+04
   1206.0  1.58622e+04
   1209.0  1.60168e+04
   1212.0  1.61729e+04
   1215.0  1.63304e+04
   1218.0  1.64894e+04
   1221.0  1.66498e+04
   1224.0  1.68117e+04
   1227.0  1.69752e+04
   1230.0  1.71401e+04
   1233.0  1.73066e+04
   1236.0  1.74745e+04
   1239.0  1.76441e+04
   1242.0  1.78152e+04
   1245.0  1.79878e+04
   1248.0  1.81621e+04
   1251.0  1.83380e+04
   1254.0  1.85154e+04
   1257.0  1.86945e+04
   1260.0  1.88753e+04
   1263.0  1.90577e+04
   1266.0  1.92418e+04
   1269.0  1.94275e+04
   1272.0  1.96150e+04
   1275.0  1.98041e+04
   1278.0  1.99950e+04
   1281.0  2.01877e+04
   1284.0  2.03821e+04
   1287.0  2.05782e+04
   1290.0  2.07762e+04
   1293.0  2.09759e+04
   1296.0  2.11775e+04
   1299.0  2.13809e+04
   1302.0  2.15861e+04
   1305.0  2.17932e+04
   1308.0  2.20022e+04
   1311.0  2.22131e+04
   1314.0  2.24259e+04
   1317.0  2.26406e+04
   1320.0  2.28572e+04
   1323.0  2.30758e+04
   1326.0  2.32964e+04
   1329.0  2.35189e+04
   1332.0  2.37435e+04
   1335.0  2.39700e+04
   1338.0  2.41987e+04
   1341.0  2.44293e+04
   1344.0  2.46621e+04
   1347.0  2.48969e+04
   1350.0  2.51338e+04
   1353.0  2.53729e+04
   1356.0  2.56141e+04
   1359.0  2.58574e+04
   1362.0  2.61029e+04
   1365.0  2.63506e+04
   1368.0  2.66006e+04
   1371.0  2.68527e+04
   1374.0  2.71071e+04
   1377.0  2.73638e+04
   1380.0  2.76227e+04
   1383.0  2.78839e+04
   1386.0  2.81475e+04
   1389.0  2.84134e+04
   1392.0  2.86816e+04
   1395.0  2.89522e+04
   1398.0  2.92252e+04
   1401.0  2.95006e+04
   1404.0  2.97785e+04
   1407.0  3.00588e+04
   1410.0  3.03416e+04
   1413.0  3.06268e+04
   1416.0  3.09146e+04
   1419.0  3.12049e+04
   1422.0  3.14977e+04
   1425.0  3.17931e+04
   1428.0  3.20911e+04
   1431.0  3.23918e+04
   1434.0  3.26950e+04
   1437.0  3.30009e+04
   1440.0  3.33095e+04
   1443.0  3.36207e+04
   1446.0  3.39347e+04
   1449.0  3.42514e+04
   1452.0  3.45708e+04
   1455.0  3.48931e+04
   1458.0  3.52181e+04
   1461.0  3.55460e+04
   1464.0  3.58767e+04
   1467.0  3.62102e+04
   1470.0  3.65467e+04
   1473.0  3.68860e+04
   1476.0  3.72283e+04
   1479.0  3.75735e+04
   1482.0  3.79217e+04
   1485.0  3.82729e+04
   1488.0  3.86272e+04
   1491.0  3.89844e+04
   1494.0  3.93448e+04
   1497.0  3.97082e+04
   1500.0  4.00748e+04
   1503.0  4.04444e+04
   1506.0  4.08173e+04
   1509.0  4.11933e+04
   1512.0  4.15726e+04
   1515.0  4.19550e+04
   1518.0  4.23408e+04
   1521.0  4.27298e+04
   1524.0  4.31221e+04
   1527.0  4.35178e+04
   1530.0  4.39168e+04
   1533.0  4.43192e+04
   1536.0  4.47250e+04
   1539.0  4.51342e+04
   1542.0  4.55469e+04
   1545.0  4.59631e+04
   1548.0  4.63828e+04
   1551.0  4.68060e+04
   1554.0  4.72328e+04
   1557.0  4.76631e+04
   1560.0  4.80971e+04
   1563.0  4.85347e+04
   1566.0  4.89760e+04
   1569.0  4.94210e+04
   1572.0  4.98697e+04
   1575.0  5.03222e+04
   1578.0  5.07784e+04
   1581.0  5.12385e+04
   1584.0  5.17023e+04
   1587.0  5.21700e+04
   1590.0  5.26417e+04
   1593.0  5.31172e+04
   1596.0  5.35966e+04
   1599.0  5.40801e+04
   1602.0  5.45675e+04
   1605.0  5.50590e+04
   1608.0  5.55545e+04
   1611.0  5.60541e+04
   1614.0  5.65579e+04
   1617.0  5.70657e+04
   1620.0  5.75778e+04
   1623.0  5.80940e+04
   1626.0  5.86145e+04
   1629.0  5.91392e+04
   1632.0  5.96683e+04
   1635.0  6.02017e+04
   1638.0  6.07394e+04
   1641.0  6.12815e+04
   1644.0  6.18280e+04
   1647.0  6.23790e+04
   1650.0  6.29344e+04
   1653.0  6.34943e+04
   1656.0  6.40588e+04
   1659.0  6.46279e+04
   1662.0  6.52016e+04
   1665.0  6.57799e+04
   1668.0  6.63628e+04
   1671.0  6.69505e+04
   1674.0  6.75429e+04
   1677.0  6.81401e+04
   1680.0  6.87420e+04
   1683.0  6.93488e+04
   1686.0  6.99605e+04
   1689.0  7.05770e+04
   1692.0  7.11985e+04
   1695.0  7.18249e+04
   1698.0  7.24564e+04
   1701.0  7.30928e+04
   1704.0  7.37344e+04
   1707.0  7.43810e+04
   1710.0  7.50328e+04
   1713.0  7.56897e+04
   1716.0  7.63518e+04
   1719.0  7.70192e+04
   1722.0  7.76918e+04
   1725.0  7.83698e+04
   1728.0  7.90531e+04
   1731.0  7.97417e+04
   1734.0  8.04358e+04
   1737.0  8.11353e+04
   1740.0  8.18404e+04
   1743.0  8.25509e+04
   1746.0  8.32670e+04
   1749.0  8.39887e+04
   1752.0  8.47160e+04
   1755.0  8.54490e+04
   1758.0  8.61876e+04
   1761.0  8.69321e+04
   1764.0  8.76823e+04
   1767.0  8.84383e+04
   1770.0  8.92002e+04
   1773.0  8.99679e+04
   1776.0  9.07416e+04
   1779.0  9.15213e+04
   1782.0  9.23069e+04
   1785.0  9.30987e+04
   1788.0  9.38964e+04
   1791.0  9.47004e+04
   1794.0  9.55104e+04
   1797.0  9.63267e+04
   1800.0  9.71492e+04
   1803.0  9.79780e+04
   1806.0  9.88131e+04
   1809.0  9.96546e+04
   1812.0  1.00502e+05
   1815.0  1.01357e+05
   1818.0  1.02218e+05
   1821.0  1.03085e+05
   1824.0  1.03959e+05
   1827.0  1.04839e+05
   1830.0  1.05726e+05
   1833.0  1.06620e+05
   1836.0  1.07521e+05
   1839.0  1.08428e+05
   1842.0  1.09342e+05
   1845.0  1.10263e+05
   1848.0  1.11191e+05
   1851.0  1.12125e+05
   1854.0  1.13067e+05
   1857.0  1.14016e+05
   1860.0  1.14972e+05
   1863.0  1.15934e+05
   1866.0  1.16905e+05
   1869.0  1.17882e+05
   1872.0  1.18866e+05
   1875.0  1.19858e+05
   1878.0  1.20857e+05
   1881.0  1.21863e+05
   1884.0  1.22877e+05
   1887.0  1.23899e+05
   1890.0  1.24927e+05
   1893.0  1.25964e+05
   1896.0  1.27008e+05
   1899.0  1.28059e+05
   1902.0  1.29118e+05
   1905.0  1.30185e+05
   1908.0  1.31260e+05
   1911.0  1.32342e+05
   1914.0  1.33433e+05
   1917.0  1.34531e+05
   1920.0  1.35637e+05
   1923.0  1.36751e+05
   1926.0  1.37874e+05
   1929.0  1.39004e+05
   1932.0  1.40142e+05
   1935.0  1.41289e+05
   1938.0  1.42444e+05
   1941.0  1.43607e+05
   1944.0  1.44778e+05
   1947.0  1.45958e+05
   1950.0  1.47146e+05
   1953.0  1.48343e+05
   1956.0  1.49548e+05
   1959.0  1.50762e+05
   1962.0  1.51984e+05
   1965.0  1.53216e+05
   1968.0  1.54455e+05
   1971.0  1.55704e+05
   1974.0  1.56961e+05
   1977.0  1.58227e+05
   1980.0  1.59502e+05
   1983.0  1.60786e+05
   1986.0  1.62079e+05
   1989.0  1.63381e+05
   1992.0  1.64692e+05
   1995.0  1.66013e+05
   1998.0  1.67342e+05
   2001.0  1.68681e+05
   2004.0  1.70029e+05
   2007.0  1.71386e+05
   2010.0  1.72753e+05
   2013.0  1.74129e+05
   2016.0  1.75515e+05
   2019.0  1.76910e+05
   2022.0  1.78315e+05
   2025.0  1.79730e+05
   2028.0  1.81154e+05
   2031.0  1.82588e+05
   2034.0  1.84032e+05
   2037.0  1.85485e+05
   2040.0  1.86949e+05
   2043.0  1.88423e+05
   2046.0  1.89906e+05
   2049.0  1.91400e+05
   2052.0  1.92904e+05
   2055.0  1.94418e+05
   2058.0  1.95942e+05
   2061.0  1.97476e+05
   2064.0  1.99021e+05
   2067.0  2.00576e+05
   2070.0  2.02142e+05
   2073.0  2.03718e+05
   2076.0  2.05305e+05
   2079.0  2.06902e+05
   2082.0  2.08510e+05
   2085.0  2.10129e+05
   2088.0  2.11758e+05
   2091.0  2.13399e+05
   2094.0  2.15050e+05
   2097.0  2.16712e+05
   2100.0  2.18385e+05
   2103.0  2.20069e+05
   2106.0  2.21765e+05
   2109.0  2.23471e+05
   2112.0  2.25189e+05
   2115.0  2.26918e+05
   2118.0  2.28658e+05
   2121.0  2.30409e+05
   2124.0  2.32172e+05
   2127.0  2.33947e+05
   2130.0  2.35733e+05
   2133.0  2.37531e+05
   2136.0  2.39340e+05
   2139.0  2.41161e+05
   2142.0  2.42994e+05
   2145.0  2.44839e+05
   2148.0  2.46696e+05
   2151.0  2.48564e+05
   2154.0  2.50445e+05
   2157.0  2.52337e+05
   2160.0  2.54242e+05
   2163.0  2.56159e+05
   2166.0  2.58088e+05
   2169.0  2.60030e+05
   2172.0  2.61984e+05
   2175.0  2.63950e+05
   2178.0  2.65929e+05
   2181.0  2.67920e+05
   2184.0  2.69924e+05
   2187.0  2.71941e+05
   2190.0  2.73970e+05
   2193.0  2.76012e+05
   2196.0  2.78067e+05
   2199.0  2.80135e+05
   2202.0  2.82215e+05
   2205.0  2.84309e+05
   2208.0  2.86416e+05
   2211.0  2.88536e+05
   2214.0  2.90669e+05
   2217.0  2.92815e+05
   2220.0  2.94975e+05
   2223.0  2.97148e+05
   2226.0  2.99334e+05
   2229.0  3.01534e+05
   2232.0  3.03748e+05
   2235.0  3.05975e+05
   2238.0  3.08216e+05
   2241.0  3.10471e+05
   2244.0  3.12739e+05
   2247.0  3.15021e+05
   2250.0  3.17317e+05
   2253.0  3.19627e+05
   2256.0  3.21952e+05
   2259.0  3.24290e+05
   2262.0  3.26642e+05
   2265.0  3.29009e+05
   2268.0  3.31390e+05
   2271.0  3.33786e+05
   2274.0  3.36195e+05
   2277.0  3.38620e+05
   2280.0  3.41058e+05
   2283.0  3.43512e+05
   2286.0  3.45980e+05
   2289.0  3.48463e+05
   2292.0  3.50960e+05
   2295.0  3.53473e+05
   2298.0  3.56000e+05
   2301.0  3.58543e+05
   2304.0  3.61100e+05
   2307.0  3.63673e+05
   2310.0  3.66261e+05
   2313.0  3.68864e+05
   2316.0  3.71482e+05
   2319.0  3.74116e+05
   2322.0  3.76765e+05
   2325.0  3.79429e+05
   2328.0  3.82110e+05
   2331.0  3.84806e+05
   2334.0  3.87517e+05
   2337.0  3.90244e+05
   2340.0  3.92987e+05
   2343.0  3.95746e+05
   2346.0  3.98521e+05
   2349.0  4.01312e+05
   2352.0  4.04119e+05
   2355.0  4.06943e+05
   2358.0  4.09782e+05
   2361.0  4.12638e+05
   2364.0  4.15510e+05
   2367.0  4.18398e+05
   2370.0  4.21303e+05
   2373.0  4.24225e+05
   2376.0  4.27163e+05
   2379.0  4.30118e+05
   2382.0  4.33089e+05
   2385.0  4.36077e+05
   2388.0  4.39083e+05
   2391.0  4.42105e+05
   2394.0  4.45144e+05
   2397.0  4.48200e+05
   2400.0  4.51273e+05
   2403.0  4.54364e+05
   2406.0  4.57472e+05
   2409.0  4.60597e+05
   2412.0  4.63740e+05
   2415.0  4.66900e+05
   2418.0  4.70077e+05
   2421.0  4.73272e+05
   2424.0  4.76485e+05
   2427.0  4.79716e+05
   2430.0  4.82964e+05
   2433.0  4.86231e+05
   2436.0  4.89515e+05
   2439.0  4.92817e+05
   2442.0  4.96137e+05
   2445.0  4.99476e+05
   2448.0  5.02833e+05
   2451.0  5.06208e+05
   2454.0  5.09601e+05
   2457.0  5.13013e+05
   2460.0  5.16443e+05
   2463.0  5.19892e+05
   2466.0  5.23359e+05
   2469.0  5.26845e+05
   2472.0  5.30350e+05
   2475.0  5.33874e+05
   2478.0  5.37416e+05
   2481.0  5.40978e+05
   2484.0  5.44558e+05
   2487.0  5.48158e+05
   2490.0  5.51777e+05
   2493.0  5.55415e+05
   2496.0  5.59072e+05
   2499.0  5.62749e+05
   2502.0  5.66445e+05
   2505.0  5.70161e+05
   2508.0  5.73896e+05
   2511.0  5.77651e+05
   2514.0  5.81426e+05
   2517.0  5.85220e+05
   2520.0  5.89034e+05
   2523.0  5.92869e+05
   2526.0  5.96723e+05
   2529.0  6.00597e+05
   2532.0  6.04491e+05
   2535.0  6.08406e+05
   2538.0  6.12341e+05
   2541.0  6.16296e+05
   2544.0  6.20272e+05
   2547.0  6.24268e+05
   2550.0  6.28285e+05
   2553.0  6.32322e+05
   2556.0  6.36380e+05
   2559.0  6.40458e+05
   2562.0  6.44558e+05
   2565.0  6.48678e+05
   2568.0  6.52820e+05
   2571.0  6.56982e+05
   2574.0  6.61166e+05
   2577.0  6.65371e+05
   2580.0  6.69597e+05
   2583.0  6.73844e+05
   2586.0  6.78113e+05
   2589.0  6.82403e+05
   2592.0  6.86714e+05
   2595.0  6.91048e+05
   2598.0  6.95403e+05
   2601.0  6.99779e+05
   2604.0  7.04178e+05
   2607.0  7.08598e+05
   2610.0  7.13040e+05
   2613.0  7.17505e+05
   2616.0  7.21991e+05
   2619.0  7.26500e+05
   2622.0  7.31031e+05
   2625.0  7.35584e+05
   2628.0  7.40159e+05
   2631.0  7.44757e+05
   2634.0  7.49377e+05
   2637.0  7.54020e+05
   2640.0  7.58686e+05
   2643.0  7.63374e+05
   2646.0  7.68086e+05
   2649.0  7.72820e+05
   2652.0  7.77577e+05
   2655.0  7.82356e+05
   2658.0  7.87160e+05
   2661.0  7.91986e+05
   2664.0  7.96835e+05
   2667.0  8.01708e+05
   2670.0  8.06604e+05
   2673.0  8.11523e+05
   2676.0  8.16466e+05
   2679.0  8.21433e+05
   2682.0  8.26423e+05
   2685.0  8.31437e+05
   2688.0  8.36474e+05
   2691.0  8.41536e+05
   2694.0  8.46621e+05
   2697.0  8.51730e+05
   2700.0  8.56864e+05
   2703.0  8.62021e+05
   2706.0  8.67203e+05
   2709.0  8.72409e+05
   2712.0  8.77640e+05
   2715.0  8.82894e+05
   2718.0  8.88174e+05
   2721.0  8.93478e+05
   2724.0  8.98806e+05
   2727.0  9.04159e+05
   2730.0  9.09537e+05
   2733.0  9.14940e+05
   2736.0  9.20367e+05
   2739.0  9.25820e+05
   2742.0  9.31298e+05
   2745.0  9.36801e+05
   2748.0  9.42329e+05
   2751.0  9.47882e+05
   2754.0  9.53460e+05
   2757.0  9.59064e+05
   2760.0  9.64694e+05
   2763.0  9.70349e+05
   2766.0  9.76029e+05
   2769.0  9.81736e+05
   2772.0  9.87468e+05
   2775.0  9.93226e+05
   2778.0  9.99009e+05
   2781.0  1.00482e+06
   2784.0  1.01065e+06
   2787.0  1.01652e+06
   2790.0  1.02240e+06
   2793.0  1.02832e+06
   2796.0  1.03426e+06
   2799.0  1.04023e+06
   2802.0  1.04622e+06
   2805.0  1.05224e+06
   2808.0  1.05829e+06
   2811.0  1.06436e+06
   2814.0  1.07046e+06
   2817.0  1.07659e+06
   2820.0  1.08274e+06
   2823.0  1.08892e+06
   2826.0  1.09513e+06
   2829.0  1.10136e+06
   2832.0  1.10762e+06
   2835.0  1.11391e+06
   2838.0  1.12023e+06
   2841.0  1.12657e+06
   2844.0  1.13295e+06
   2847.0  1.13934e+06
   2850.0  1.14577e+06
   2853.0  1.15222e+06
   2856.0  1.15871e+06
   2859.0  1.16522e+06
   2862.0  1.17175e+06
   2865.0  1.17832e+06
   2868.0  1.18491e+06
   2871.0  1.19153e+06
   2874.0  1.19818e+06
   2877.0  1.20486e+06
   2880.0  1.21156e+06
   2883.0  1.21830e+06
   2886.0  1.22506e+06
   2889.0  1.23185e+06
   2892.0  1.23867e+06
   2895.0  1.24552e+06
   2898.0  1.25240e+06
   2901.0  1.25930e+06
   2904.0  1.26624e+06
   2907.0  1.27320e+06
   2910.0  1.28019e+06
   2913.0  1.28721e+06
   2916.0  1.29426e+06
   2919.0  1.30134e+06
   2922.0  1.30845e+06
   2925.0  1.31559e+06
   2928.0  1.32276e+06
   2931.0  1.32996e+06
   2934.0  1.33718e+06
   2937.0  1.34444e+06
   2940.0  1.35172e+06
   2943.0  1.35904e+06
   2946.0  1.36639e+06
   2949.0  1.37376e+06
   2952.0  1.38117e+06
   2955.0  1.38860e+06
   2958.0  1.39607e+06
   2961.0  1.40356e+06
   2964.0  1.41109e+06
   2967.0  1.41864e+06
   2970.0  1.42623e+06
   2973.0  1.43384e+06
   2976.0  1.44149e+06
   2979.0  1.44917e+06
   2982.0  1.45688e+06
   2985.0  1.46462e+06
   2988.0  1.47238e+06
   2991.0  1.48019e+06
   2994.0  1.48802e+06
   2997.0  1.49588e+06
   3000.0  1.50377e+06
