# ExoMol VO partition-function data
  temp(K)          16
      1.0  4.42215e+01
      2.0  6.81685e+01
      3.0  9.31053e+01
      4.0  1.19915e+02
      5.0  1.48731e+02
      6.0  1.79349e+02
      7.0  2.11480e+02
      8.0  2.44852e+02
      9.0  2.79240e+02
     10.0  3.14460e+02
     11.0  3.50365e+02
     12.0  3.86840e+02
     13.0  4.23792e+02
     14.0  4.61147e+02
     15.0  4.98846e+02
     16.0  5.36838e+02
     17.0  5.75084e+02
     18.0  6.13550e+02
     19.0  6.52209e+02
     20.0  6.91036e+02
     21.0  7.30013e+02
     22.0  7.69122e+02
     23.0  8.08349e+02
     24.0  8.47682e+02
     25.0  8.87109e+02
     26.0  9.26622e+02
     27.0  9.66212e+02
     28.0  1.00587e+03
     29.0  1.04560e+03
     30.0  1.08538e+03
     31.0  1.12521e+03
     32.0  1.16510e+03
     33.0  1.20503e+03
     34.0  1.24500e+03
     35.0  1.28501e+03
     36.0  1.32505e+03
     37.0  1.36513e+03
     38.0  1.40524e+03
     39.0  1.44538e+03
     40.0  1.48554e+03
     41.0  1.52573e+03
     42.0  1.56594e+03
     43.0  1.60617e+03
     44.0  1.64643e+03
     45.0  1.68670e+03
     46.0  1.72699e+03
     47.0  1.76730e+03
     48.0  1.80762e+03
     49.0  1.84796e+03
     50.0  1.88831e+03
     51.0  1.92868e+03
     52.0  1.96906e+03
     53.0  2.00945e+03
     54.0  2.04985e+03
     55.0  2.09027e+03
     56.0  2.13069e+03
     57.0  2.17112e+03
     58.0  2.21157e+03
     59.0  2.25202e+03
     60.0  2.29248e+03
     61.0  2.33295e+03
     62.0  2.37343e+03
     63.0  2.41391e+03
     64.0  2.45441e+03
     65.0  2.49491e+03
     66.0  2.53541e+03
     67.0  2.57592e+03
     68.0  2.61644e+03
     69.0  2.65697e+03
     70.0  2.69750e+03
     71.0  2.73803e+03
     72.0  2.77857e+03
     73.0  2.81912e+03
     74.0  2.85967e+03
     75.0  2.90022e+03
     76.0  2.94078e+03
     77.0  2.98134e+03
     78.0  3.02191e+03
     79.0  3.06248e+03
     80.0  3.10306e+03
     81.0  3.14364e+03
     82.0  3.18422e+03
     83.0  3.22481e+03
     84.0  3.26540e+03
     85.0  3.30599e+03
     86.0  3.34659e+03
     87.0  3.38719e+03
     88.0  3.42779e+03
     89.0  3.46840e+03
     90.0  3.50900e+03
     91.0  3.54962e+03
     92.0  3.59023e+03
     93.0  3.63085e+03
     94.0  3.67146e+03
     95.0  3.71209e+03
     96.0  3.75271e+03
     97.0  3.79334e+03
     98.0  3.83397e+03
     99.0  3.87460e+03
    100.0  3.91523e+03
    101.0  3.95586e+03
    102.0  3.99650e+03
    103.0  4.03714e+03
    104.0  4.07778e+03
    105.0  4.11843e+03
    106.0  4.15907e+03
    107.0  4.19972e+03
    108.0  4.24037e+03
    109.0  4.28102e+03
    110.0  4.32167e+03
    111.0  4.36233e+03
    112.0  4.40298e+03
    113.0  4.44364e+03
    114.0  4.48430e+03
    115.0  4.52496e+03
    116.0  4.56562e+03
    117.0  4.60629e+03
    118.0  4.64696e+03
    119.0  4.68762e+03
    120.0  4.72829e+03
    121.0  4.76896e+03
    122.0  4.80964e+03
    123.0  4.85031e+03
    124.0  4.89099e+03
    125.0  4.93167e+03
    126.0  4.97235e+03
    127.0  5.01303e+03
    128.0  5.05371e+03
    129.0  5.09439e+03
    130.0  5.13508e+03
    131.0  5.17577e+03
    132.0  5.21646e+03
    133.0  5.25715e+03
    134.0  5.29784e+03
    135.0  5.33854e+03
    136.0  5.37923e+03
    137.0  5.41993e+03
    138.0  5.46063e+03
    139.0  5.50133e+03
    140.0  5.54204e+03
    141.0  5.58274e+03
    142.0  5.62345e+03
    143.0  5.66416e+03
    144.0  5.70487e+03
    145.0  5.74559e+03
    146.0  5.78630e+03
    147.0  5.82702e+03
    148.0  5.86774e+03
    149.0  5.90847e+03
    150.0  5.94919e+03
    151.0  5.98992e+03
    152.0  6.03065e+03
    153.0  6.07139e+03
    154.0  6.11212e+03
    155.0  6.15286e+03
    156.0  6.19360e+03
    157.0  6.23435e+03
    158.0  6.27509e+03
    159.0  6.31585e+03
    160.0  6.35660e+03
    161.0  6.39736e+03
    162.0  6.43812e+03
    163.0  6.47888e+03
    164.0  6.51965e+03
    165.0  6.56042e+03
    166.0  6.60119e+03
    167.0  6.64197e+03
    168.0  6.68275e+03
    169.0  6.72354e+03
    170.0  6.76433e+03
    171.0  6.80512e+03
    172.0  6.84592e+03
    173.0  6.88672e+03
    174.0  6.92753e+03
    175.0  6.96834e+03
    176.0  7.00916e+03
    177.0  7.04998e+03
    178.0  7.09081e+03
    179.0  7.13164e+03
    180.0  7.17248e+03
    181.0  7.21332e+03
    182.0  7.25417e+03
    183.0  7.29502e+03
    184.0  7.33588e+03
    185.0  7.37674e+03
    186.0  7.41762e+03
    187.0  7.45849e+03
    188.0  7.49938e+03
    189.0  7.54027e+03
    190.0  7.58116e+03
    191.0  7.62207e+03
    192.0  7.66298e+03
    193.0  7.70389e+03
    194.0  7.74482e+03
    195.0  7.78575e+03
    196.0  7.82669e+03
    197.0  7.86764e+03
    198.0  7.90859e+03
    199.0  7.94956e+03
    200.0  7.99053e+03
    201.0  8.03151e+03
    202.0  8.07249e+03
    203.0  8.11349e+03
    204.0  8.15450e+03
    205.0  8.19551e+03
    206.0  8.23653e+03
    207.0  8.27757e+03
    208.0  8.31861e+03
    209.0  8.35966e+03
    210.0  8.40072e+03
    211.0  8.44179e+03
    212.0  8.48287e+03
    213.0  8.52397e+03
    214.0  8.56507e+03
    215.0  8.60618e+03
    216.0  8.64730e+03
    217.0  8.68844e+03
    218.0  8.72959e+03
    219.0  8.77074e+03
    220.0  8.81191e+03
    221.0  8.85309e+03
    222.0  8.89429e+03
    223.0  8.93549e+03
    224.0  8.97671e+03
    225.0  9.01794e+03
    226.0  9.05918e+03
    227.0  9.10044e+03
    228.0  9.14171e+03
    229.0  9.18299e+03
    230.0  9.22428e+03
    231.0  9.26559e+03
    232.0  9.30692e+03
    233.0  9.34825e+03
    234.0  9.38960e+03
    235.0  9.43097e+03
    236.0  9.47235e+03
    237.0  9.51375e+03
    238.0  9.55515e+03
    239.0  9.59658e+03
    240.0  9.63802e+03
    241.0  9.67948e+03
    242.0  9.72095e+03
    243.0  9.76244e+03
    244.0  9.80394e+03
    245.0  9.84546e+03
    246.0  9.88700e+03
    247.0  9.92855e+03
    248.0  9.97012e+03
    249.0  1.00117e+04
    250.0  1.00533e+04
    251.0  1.00949e+04
    252.0  1.01366e+04
    253.0  1.01782e+04
    254.0  1.02199e+04
    255.0  1.02616e+04
    256.0  1.03033e+04
    257.0  1.03450e+04
    258.0  1.03868e+04
    259.0  1.04286e+04
    260.0  1.04704e+04
    261.0  1.05122e+04
    262.0  1.05540e+04
    263.0  1.05958e+04
    264.0  1.06377e+04
    265.0  1.06796e+04
    266.0  1.07215e+04
    267.0  1.07634e+04
    268.0  1.08054e+04
    269.0  1.08474e+04
    270.0  1.08893e+04
    271.0  1.09314e+04
    272.0  1.09734e+04
    273.0  1.10154e+04
    274.0  1.10575e+04
    275.0  1.10996e+04
    276.0  1.11418e+04
    277.0  1.11839e+04
    278.0  1.12261e+04
    279.0  1.12683e+04
    280.0  1.13105e+04
    281.0  1.13527e+04
    282.0  1.13950e+04
    283.0  1.14373e+04
    284.0  1.14796e+04
    285.0  1.15219e+04
    286.0  1.15642e+04
    287.0  1.16066e+04
    288.0  1.16490e+04
    289.0  1.16915e+04
    290.0  1.17339e+04
    291.0  1.17764e+04
    292.0  1.18189e+04
    293.0  1.18614e+04
    294.0  1.19040e+04
    295.0  1.19466e+04
    296.0  1.19892e+04
    297.0  1.20318e+04
    298.0  1.20745e+04
    299.0  1.21172e+04
    300.0  1.21599e+04
    301.0  1.22026e+04
    302.0  1.22454e+04
    303.0  1.22882e+04
    304.0  1.23310e+04
    305.0  1.23739e+04
    306.0  1.24167e+04
    307.0  1.24596e+04
    308.0  1.25026e+04
    309.0  1.25455e+04
    310.0  1.25885e+04
    311.0  1.26315e+04
    312.0  1.26746e+04
    313.0  1.27177e+04
    314.0  1.27608e+04
    315.0  1.28039e+04
    316.0  1.28471e+04
    317.0  1.28903e+04
    318.0  1.29335e+04
    319.0  1.29767e+04
    320.0  1.30200e+04
    321.0  1.30633e+04
    322.0  1.31067e+04
    323.0  1.31501e+04
    324.0  1.31935e+04
    325.0  1.32369e+04
    326.0  1.32804e+04
    327.0  1.33239e+04
    328.0  1.33674e+04
    329.0  1.34110e+04
    330.0  1.34545e+04
    331.0  1.34982e+04
    332.0  1.35418e+04
    333.0  1.35855e+04
    334.0  1.36292e+04
    335.0  1.36730e+04
    336.0  1.37168e+04
    337.0  1.37606e+04
    338.0  1.38044e+04
    339.0  1.38483e+04
    340.0  1.38922e+04
    341.0  1.39362e+04
    342.0  1.39802e+04
    343.0  1.40242e+04
    344.0  1.40683e+04
    345.0  1.41123e+04
    346.0  1.41565e+04
    347.0  1.42006e+04
    348.0  1.42448e+04
    349.0  1.42890e+04
    350.0  1.43333e+04
    351.0  1.43776e+04
    352.0  1.44219e+04
    353.0  1.44663e+04
    354.0  1.45107e+04
    355.0  1.45551e+04
    356.0  1.45996e+04
    357.0  1.46441e+04
    358.0  1.46886e+04
    359.0  1.47332e+04
    360.0  1.47778e+04
    361.0  1.48224e+04
    362.0  1.48671e+04
    363.0  1.49118e+04
    364.0  1.49566e+04
    365.0  1.50014e+04
    366.0  1.50462e+04
    367.0  1.50911e+04
    368.0  1.51360e+04
    369.0  1.51809e+04
    370.0  1.52259e+04
    371.0  1.52709e+04
    372.0  1.53160e+04
    373.0  1.53610e+04
    374.0  1.54062e+04
    375.0  1.54513e+04
    376.0  1.54965e+04
    377.0  1.55418e+04
    378.0  1.55871e+04
    379.0  1.56324e+04
    380.0  1.56777e+04
    381.0  1.57231e+04
    382.0  1.57686e+04
    383.0  1.58140e+04
    384.0  1.58595e+04
    385.0  1.59051e+04
    386.0  1.59507e+04
    387.0  1.59963e+04
    388.0  1.60420e+04
    389.0  1.60877e+04
    390.0  1.61334e+04
    391.0  1.61792e+04
    392.0  1.62250e+04
    393.0  1.62709e+04
    394.0  1.63168e+04
    395.0  1.63628e+04
    396.0  1.64087e+04
    397.0  1.64548e+04
    398.0  1.65008e+04
    399.0  1.65469e+04
    400.0  1.65931e+04
    401.0  1.66393e+04
    402.0  1.66855e+04
    403.0  1.67318e+04
    404.0  1.67781e+04
    405.0  1.68244e+04
    406.0  1.68708e+04
    407.0  1.69173e+04
    408.0  1.69637e+04
    409.0  1.70103e+04
    410.0  1.70568e+04
    411.0  1.71034e+04
    412.0  1.71501e+04
    413.0  1.71968e+04
    414.0  1.72435e+04
    415.0  1.72903e+04
    416.0  1.73371e+04
    417.0  1.73839e+04
    418.0  1.74308e+04
    419.0  1.74778e+04
    420.0  1.75247e+04
    421.0  1.75718e+04
    422.0  1.76188e+04
    423.0  1.76659e+04
    424.0  1.77131e+04
    425.0  1.77603e+04
    426.0  1.78075e+04
    427.0  1.78548e+04
    428.0  1.79021e+04
    429.0  1.79495e+04
    430.0  1.79969e+04
    431.0  1.80444e+04
    432.0  1.80919e+04
    433.0  1.81394e+04
    434.0  1.81870e+04
    435.0  1.82346e+04
    436.0  1.82823e+04
    437.0  1.83300e+04
    438.0  1.83778e+04
    439.0  1.84256e+04
    440.0  1.84734e+04
    441.0  1.85213e+04
    442.0  1.85693e+04
    443.0  1.86173e+04
    444.0  1.86653e+04
    445.0  1.87134e+04
    446.0  1.87615e+04
    447.0  1.88096e+04
    448.0  1.88579e+04
    449.0  1.89061e+04
    450.0  1.89544e+04
    451.0  1.90028e+04
    452.0  1.90511e+04
    453.0  1.90996e+04
    454.0  1.91481e+04
    455.0  1.91966e+04
    456.0  1.92452e+04
    457.0  1.92938e+04
    458.0  1.93424e+04
    459.0  1.93911e+04
    460.0  1.94399e+04
    461.0  1.94887e+04
    462.0  1.95375e+04
    463.0  1.95864e+04
    464.0  1.96354e+04
    465.0  1.96844e+04
    466.0  1.97334e+04
    467.0  1.97825e+04
    468.0  1.98316e+04
    469.0  1.98808e+04
    470.0  1.99300e+04
    471.0  1.99792e+04
    472.0  2.00285e+04
    473.0  2.00779e+04
    474.0  2.01273e+04
    475.0  2.01768e+04
    476.0  2.02262e+04
    477.0  2.02758e+04
    478.0  2.03254e+04
    479.0  2.03750e+04
    480.0  2.04247e+04
    481.0  2.04744e+04
    482.0  2.05242e+04
    483.0  2.05740e+04
    484.0  2.06239e+04
    485.0  2.06738e+04
    486.0  2.07238e+04
    487.0  2.07738e+04
    488.0  2.08239e+04
    489.0  2.08740e+04
    490.0  2.09242e+04
    491.0  2.09744e+04
    492.0  2.10246e+04
    493.0  2.10749e+04
    494.0  2.11253e+04
    495.0  2.11757e+04
    496.0  2.12261e+04
    497.0  2.12766e+04
    498.0  2.13272e+04
    499.0  2.13778e+04
    500.0  2.14284e+04
    501.0  2.14791e+04
    502.0  2.15298e+04
    503.0  2.15806e+04
    504.0  2.16315e+04
    505.0  2.16823e+04
    506.0  2.17333e+04
    507.0  2.17843e+04
    508.0  2.18353e+04
    509.0  2.18864e+04
    510.0  2.19375e+04
    511.0  2.19887e+04
    512.0  2.20399e+04
    513.0  2.20912e+04
    514.0  2.21425e+04
    515.0  2.21939e+04
    516.0  2.22453e+04
    517.0  2.22968e+04
    518.0  2.23483e+04
    519.0  2.23999e+04
    520.0  2.24515e+04
    521.0  2.25032e+04
    522.0  2.25549e+04
    523.0  2.26066e+04
    524.0  2.26585e+04
    525.0  2.27103e+04
    526.0  2.27622e+04
    527.0  2.28142e+04
    528.0  2.28662e+04
    529.0  2.29183e+04
    530.0  2.29704e+04
    531.0  2.30226e+04
    532.0  2.30748e+04
    533.0  2.31271e+04
    534.0  2.31794e+04
    535.0  2.32317e+04
    536.0  2.32842e+04
    537.0  2.33366e+04
    538.0  2.33891e+04
    539.0  2.34417e+04
    540.0  2.34943e+04
    541.0  2.35470e+04
    542.0  2.35997e+04
    543.0  2.36525e+04
    544.0  2.37053e+04
    545.0  2.37582e+04
    546.0  2.38111e+04
    547.0  2.38641e+04
    548.0  2.39171e+04
    549.0  2.39702e+04
    550.0  2.40233e+04
    551.0  2.40765e+04
    552.0  2.41297e+04
    553.0  2.41830e+04
    554.0  2.42363e+04
    555.0  2.42897e+04
    556.0  2.43431e+04
    557.0  2.43966e+04
    558.0  2.44501e+04
    559.0  2.45037e+04
    560.0  2.45573e+04
    561.0  2.46110e+04
    562.0  2.46648e+04
    563.0  2.47185e+04
    564.0  2.47724e+04
    565.0  2.48263e+04
    566.0  2.48802e+04
    567.0  2.49342e+04
    568.0  2.49882e+04
    569.0  2.50423e+04
    570.0  2.50965e+04
    571.0  2.51507e+04
    572.0  2.52049e+04
    573.0  2.52592e+04
    574.0  2.53136e+04
    575.0  2.53680e+04
    576.0  2.54225e+04
    577.0  2.54770e+04
    578.0  2.55315e+04
    579.0  2.55861e+04
    580.0  2.56408e+04
    581.0  2.56955e+04
    582.0  2.57503e+04
    583.0  2.58051e+04
    584.0  2.58600e+04
    585.0  2.59149e+04
    586.0  2.59699e+04
    587.0  2.60249e+04
    588.0  2.60800e+04
    589.0  2.61351e+04
    590.0  2.61903e+04
    591.0  2.62456e+04
    592.0  2.63008e+04
    593.0  2.63562e+04
    594.0  2.64116e+04
    595.0  2.64670e+04
    596.0  2.65225e+04
    597.0  2.65781e+04
    598.0  2.66337e+04
    599.0  2.66893e+04
    600.0  2.67450e+04
    601.0  2.68008e+04
    602.0  2.68566e+04
    603.0  2.69125e+04
    604.0  2.69684e+04
    605.0  2.70244e+04
    606.0  2.70804e+04
    607.0  2.71365e+04
    608.0  2.71926e+04
    609.0  2.72488e+04
    610.0  2.73050e+04
    611.0  2.73613e+04
    612.0  2.74177e+04
    613.0  2.74741e+04
    614.0  2.75305e+04
    615.0  2.75870e+04
    616.0  2.76436e+04
    617.0  2.77002e+04
    618.0  2.77568e+04
    619.0  2.78135e+04
    620.0  2.78703e+04
    621.0  2.79271e+04
    622.0  2.79840e+04
    623.0  2.80409e+04
    624.0  2.80979e+04
    625.0  2.81549e+04
    626.0  2.82120e+04
    627.0  2.82692e+04
    628.0  2.83264e+04
    629.0  2.83836e+04
    630.0  2.84409e+04
    631.0  2.84983e+04
    632.0  2.85557e+04
    633.0  2.86131e+04
    634.0  2.86706e+04
    635.0  2.87282e+04
    636.0  2.87858e+04
    637.0  2.88435e+04
    638.0  2.89012e+04
    639.0  2.89590e+04
    640.0  2.90168e+04
    641.0  2.90747e+04
    642.0  2.91327e+04
    643.0  2.91907e+04
    644.0  2.92487e+04
    645.0  2.93068e+04
    646.0  2.93650e+04
    647.0  2.94232e+04
    648.0  2.94814e+04
    649.0  2.95398e+04
    650.0  2.95981e+04
    651.0  2.96565e+04
    652.0  2.97150e+04
    653.0  2.97736e+04
    654.0  2.98321e+04
    655.0  2.98908e+04
    656.0  2.99495e+04
    657.0  3.00082e+04
    658.0  3.00670e+04
    659.0  3.01259e+04
    660.0  3.01848e+04
    661.0  3.02438e+04
    662.0  3.03028e+04
    663.0  3.03619e+04
    664.0  3.04210e+04
    665.0  3.04802e+04
    666.0  3.05394e+04
    667.0  3.05987e+04
    668.0  3.06581e+04
    669.0  3.07175e+04
    670.0  3.07769e+04
    671.0  3.08364e+04
    672.0  3.08960e+04
    673.0  3.09556e+04
    674.0  3.10153e+04
    675.0  3.10750e+04
    676.0  3.11348e+04
    677.0  3.11946e+04
    678.0  3.12545e+04
    679.0  3.13144e+04
    680.0  3.13744e+04
    681.0  3.14345e+04
    682.0  3.14946e+04
    683.0  3.15548e+04
    684.0  3.16150e+04
    685.0  3.16753e+04
    686.0  3.17356e+04
    687.0  3.17960e+04
    688.0  3.18564e+04
    689.0  3.19169e+04
    690.0  3.19774e+04
    691.0  3.20380e+04
    692.0  3.20987e+04
    693.0  3.21594e+04
    694.0  3.22202e+04
    695.0  3.22810e+04
    696.0  3.23419e+04
    697.0  3.24028e+04
    698.0  3.24638e+04
    699.0  3.25248e+04
    700.0  3.25859e+04
    701.0  3.26470e+04
    702.0  3.27082e+04
    703.0  3.27695e+04
    704.0  3.28308e+04
    705.0  3.28922e+04
    706.0  3.29536e+04
    707.0  3.30151e+04
    708.0  3.30766e+04
    709.0  3.31382e+04
    710.0  3.31999e+04
    711.0  3.32616e+04
    712.0  3.33233e+04
    713.0  3.33851e+04
    714.0  3.34470e+04
    715.0  3.35089e+04
    716.0  3.35709e+04
    717.0  3.36329e+04
    718.0  3.36950e+04
    719.0  3.37571e+04
    720.0  3.38193e+04
    721.0  3.38816e+04
    722.0  3.39439e+04
    723.0  3.40062e+04
    724.0  3.40687e+04
    725.0  3.41311e+04
    726.0  3.41937e+04
    727.0  3.42562e+04
    728.0  3.43189e+04
    729.0  3.43816e+04
    730.0  3.44443e+04
    731.0  3.45071e+04
    732.0  3.45700e+04
    733.0  3.46329e+04
    734.0  3.46959e+04
    735.0  3.47589e+04
    736.0  3.48220e+04
    737.0  3.48851e+04
    738.0  3.49483e+04
    739.0  3.50116e+04
    740.0  3.50749e+04
    741.0  3.51382e+04
    742.0  3.52017e+04
    743.0  3.52651e+04
    744.0  3.53287e+04
    745.0  3.53922e+04
    746.0  3.54559e+04
    747.0  3.55196e+04
    748.0  3.55833e+04
    749.0  3.56471e+04
    750.0  3.57110e+04
    751.0  3.57749e+04
    752.0  3.58389e+04
    753.0  3.59029e+04
    754.0  3.59670e+04
    755.0  3.60311e+04
    756.0  3.60953e+04
    757.0  3.61596e+04
    758.0  3.62239e+04
    759.0  3.62883e+04
    760.0  3.63527e+04
    761.0  3.64172e+04
    762.0  3.64817e+04
    763.0  3.65463e+04
    764.0  3.66109e+04
    765.0  3.66756e+04
    766.0  3.67404e+04
    767.0  3.68052e+04
    768.0  3.68701e+04
    769.0  3.69350e+04
    770.0  3.70000e+04
    771.0  3.70650e+04
    772.0  3.71301e+04
    773.0  3.71952e+04
    774.0  3.72605e+04
    775.0  3.73257e+04
    776.0  3.73910e+04
    777.0  3.74564e+04
    778.0  3.75218e+04
    779.0  3.75873e+04
    780.0  3.76529e+04
    781.0  3.77185e+04
    782.0  3.77841e+04
    783.0  3.78498e+04
    784.0  3.79156e+04
    785.0  3.79814e+04
    786.0  3.80473e+04
    787.0  3.81132e+04
    788.0  3.81792e+04
    789.0  3.82453e+04
    790.0  3.83114e+04
    791.0  3.83775e+04
    792.0  3.84438e+04
    793.0  3.85100e+04
    794.0  3.85764e+04
    795.0  3.86428e+04
    796.0  3.87092e+04
    797.0  3.87757e+04
    798.0  3.88423e+04
    799.0  3.89089e+04
    800.0  3.89755e+04
    801.0  3.90423e+04
    802.0  3.91090e+04
    803.0  3.91759e+04
    804.0  3.92428e+04
    805.0  3.93097e+04
    806.0  3.93767e+04
    807.0  3.94438e+04
    808.0  3.95109e+04
    809.0  3.95781e+04
    810.0  3.96453e+04
    811.0  3.97126e+04
    812.0  3.97800e+04
    813.0  3.98474e+04
    814.0  3.99148e+04
    815.0  3.99824e+04
    816.0  4.00499e+04
    817.0  4.01176e+04
    818.0  4.01853e+04
    819.0  4.02530e+04
    820.0  4.03208e+04
    821.0  4.03887e+04
    822.0  4.04566e+04
    823.0  4.05246e+04
    824.0  4.05926e+04
    825.0  4.06607e+04
    826.0  4.07288e+04
    827.0  4.07970e+04
    828.0  4.08653e+04
    829.0  4.09336e+04
    830.0  4.10020e+04
    831.0  4.10704e+04
    832.0  4.11389e+04
    833.0  4.12074e+04
    834.0  4.12760e+04
    835.0  4.13447e+04
    836.0  4.14134e+04
    837.0  4.14821e+04
    838.0  4.15510e+04
    839.0  4.16198e+04
    840.0  4.16888e+04
    841.0  4.17578e+04
    842.0  4.18268e+04
    843.0  4.18959e+04
    844.0  4.19651e+04
    845.0  4.20343e+04
    846.0  4.21036e+04
    847.0  4.21730e+04
    848.0  4.22424e+04
    849.0  4.23118e+04
    850.0  4.23813e+04
    851.0  4.24509e+04
    852.0  4.25205e+04
    853.0  4.25902e+04
    854.0  4.26599e+04
    855.0  4.27297e+04
    856.0  4.27996e+04
    857.0  4.28695e+04
    858.0  4.29395e+04
    859.0  4.30095e+04
    860.0  4.30796e+04
    861.0  4.31497e+04
    862.0  4.32199e+04
    863.0  4.32902e+04
    864.0  4.33605e+04
    865.0  4.34309e+04
    866.0  4.35013e+04
    867.0  4.35718e+04
    868.0  4.36423e+04
    869.0  4.37129e+04
    870.0  4.37836e+04
    871.0  4.38543e+04
    872.0  4.39250e+04
    873.0  4.39959e+04
    874.0  4.40668e+04
    875.0  4.41377e+04
    876.0  4.42087e+04
    877.0  4.42798e+04
    878.0  4.43509e+04
    879.0  4.44220e+04
    880.0  4.44933e+04
    881.0  4.45646e+04
    882.0  4.46359e+04
    883.0  4.47073e+04
    884.0  4.47788e+04
    885.0  4.48503e+04
    886.0  4.49219e+04
    887.0  4.49935e+04
    888.0  4.50652e+04
    889.0  4.51369e+04
    890.0  4.52087e+04
    891.0  4.52806e+04
    892.0  4.53525e+04
    893.0  4.54245e+04
    894.0  4.54965e+04
    895.0  4.55686e+04
    896.0  4.56408e+04
    897.0  4.57130e+04
    898.0  4.57853e+04
    899.0  4.58576e+04
    900.0  4.59300e+04
    901.0  4.60024e+04
    902.0  4.60749e+04
    903.0  4.61475e+04
    904.0  4.62201e+04
    905.0  4.62928e+04
    906.0  4.63655e+04
    907.0  4.64383e+04
    908.0  4.65111e+04
    909.0  4.65840e+04
    910.0  4.66570e+04
    911.0  4.67300e+04
    912.0  4.68031e+04
    913.0  4.68762e+04
    914.0  4.69494e+04
    915.0  4.70227e+04
    916.0  4.70960e+04
    917.0  4.71693e+04
    918.0  4.72428e+04
    919.0  4.73163e+04
    920.0  4.73898e+04
    921.0  4.74634e+04
    922.0  4.75370e+04
    923.0  4.76108e+04
    924.0  4.76845e+04
    925.0  4.77584e+04
    926.0  4.78323e+04
    927.0  4.79062e+04
    928.0  4.79802e+04
    929.0  4.80543e+04
    930.0  4.81284e+04
    931.0  4.82026e+04
    932.0  4.82768e+04
    933.0  4.83511e+04
    934.0  4.84255e+04
    935.0  4.84999e+04
    936.0  4.85743e+04
    937.0  4.86489e+04
    938.0  4.87235e+04
    939.0  4.87981e+04
    940.0  4.88728e+04
    941.0  4.89476e+04
    942.0  4.90224e+04
    943.0  4.90973e+04
    944.0  4.91722e+04
    945.0  4.92472e+04
    946.0  4.93222e+04
    947.0  4.93974e+04
    948.0  4.94725e+04
    949.0  4.95478e+04
    950.0  4.96230e+04
    951.0  4.96984e+04
    952.0  4.97738e+04
    953.0  4.98493e+04
    954.0  4.99248e+04
    955.0  5.00004e+04
    956.0  5.00760e+04
    957.0  5.01517e+04
    958.0  5.02274e+04
    959.0  5.03032e+04
    960.0  5.03791e+04
    961.0  5.04550e+04
    962.0  5.05310e+04
    963.0  5.06071e+04
    964.0  5.06832e+04
    965.0  5.07594e+04
    966.0  5.08356e+04
    967.0  5.09119e+04
    968.0  5.09882e+04
    969.0  5.10646e+04
    970.0  5.11410e+04
    971.0  5.12176e+04
    972.0  5.12941e+04
    973.0  5.13708e+04
    974.0  5.14475e+04
    975.0  5.15242e+04
    976.0  5.16010e+04
    977.0  5.16779e+04
    978.0  5.17548e+04
    979.0  5.18318e+04
    980.0  5.19088e+04
    981.0  5.19859e+04
    982.0  5.20631e+04
    983.0  5.21403e+04
    984.0  5.22176e+04
    985.0  5.22949e+04
    986.0  5.23723e+04
    987.0  5.24498e+04
    988.0  5.25273e+04
    989.0  5.26049e+04
    990.0  5.26825e+04
    991.0  5.27602e+04
    992.0  5.28379e+04
    993.0  5.29158e+04
    994.0  5.29936e+04
    995.0  5.30715e+04
    996.0  5.31495e+04
    997.0  5.32276e+04
    998.0  5.33057e+04
    999.0  5.33838e+04
   1000.0  5.34621e+04
   1001.0  5.35403e+04
   1002.0  5.36187e+04
   1003.0  5.36971e+04
   1004.0  5.37755e+04
   1005.0  5.38540e+04
   1006.0  5.39326e+04
   1007.0  5.40113e+04
   1008.0  5.40900e+04
   1009.0  5.41687e+04
   1010.0  5.42475e+04
   1011.0  5.43264e+04
   1012.0  5.44053e+04
   1013.0  5.44843e+04
   1014.0  5.45634e+04
   1015.0  5.46425e+04
   1016.0  5.47216e+04
   1017.0  5.48009e+04
   1018.0  5.48801e+04
   1019.0  5.49595e+04
   1020.0  5.50389e+04
   1021.0  5.51184e+04
   1022.0  5.51979e+04
   1023.0  5.52775e+04
   1024.0  5.53571e+04
   1025.0  5.54368e+04
   1026.0  5.55166e+04
   1027.0  5.55964e+04
   1028.0  5.56763e+04
   1029.0  5.57562e+04
   1030.0  5.58362e+04
   1031.0  5.59163e+04
   1032.0  5.59964e+04
   1033.0  5.60766e+04
   1034.0  5.61568e+04
   1035.0  5.62371e+04
   1036.0  5.63174e+04
   1037.0  5.63979e+04
   1038.0  5.64783e+04
   1039.0  5.65589e+04
   1040.0  5.66395e+04
   1041.0  5.67201e+04
   1042.0  5.68008e+04
   1043.0  5.68816e+04
   1044.0  5.69624e+04
   1045.0  5.70433e+04
   1046.0  5.71243e+04
   1047.0  5.72053e+04
   1048.0  5.72863e+04
   1049.0  5.73675e+04
   1050.0  5.74487e+04
   1051.0  5.75299e+04
   1052.0  5.76112e+04
   1053.0  5.76926e+04
   1054.0  5.77740e+04
   1055.0  5.78555e+04
   1056.0  5.79371e+04
   1057.0  5.80187e+04
   1058.0  5.81003e+04
   1059.0  5.81821e+04
   1060.0  5.82638e+04
   1061.0  5.83457e+04
   1062.0  5.84276e+04
   1063.0  5.85096e+04
   1064.0  5.85916e+04
   1065.0  5.86737e+04
   1066.0  5.87558e+04
   1067.0  5.88380e+04
   1068.0  5.89203e+04
   1069.0  5.90026e+04
   1070.0  5.90850e+04
   1071.0  5.91675e+04
   1072.0  5.92500e+04
   1073.0  5.93325e+04
   1074.0  5.94152e+04
   1075.0  5.94979e+04
   1076.0  5.95806e+04
   1077.0  5.96634e+04
   1078.0  5.97463e+04
   1079.0  5.98292e+04
   1080.0  5.99122e+04
   1081.0  5.99953e+04
   1082.0  6.00784e+04
   1083.0  6.01615e+04
   1084.0  6.02448e+04
   1085.0  6.03281e+04
   1086.0  6.04114e+04
   1087.0  6.04948e+04
   1088.0  6.05783e+04
   1089.0  6.06618e+04
   1090.0  6.07454e+04
   1091.0  6.08291e+04
   1092.0  6.09128e+04
   1093.0  6.09965e+04
   1094.0  6.10804e+04
   1095.0  6.11643e+04
   1096.0  6.12482e+04
   1097.0  6.13322e+04
   1098.0  6.14163e+04
   1099.0  6.15005e+04
   1100.0  6.15846e+04
   1101.0  6.16689e+04
   1102.0  6.17532e+04
   1103.0  6.18376e+04
   1104.0  6.19220e+04
   1105.0  6.20065e+04
   1106.0  6.20911e+04
   1107.0  6.21757e+04
   1108.0  6.22604e+04
   1109.0  6.23451e+04
   1110.0  6.24299e+04
   1111.0  6.25148e+04
   1112.0  6.25997e+04
   1113.0  6.26847e+04
   1114.0  6.27698e+04
   1115.0  6.28549e+04
   1116.0  6.29400e+04
   1117.0  6.30253e+04
   1118.0  6.31105e+04
   1119.0  6.31959e+04
   1120.0  6.32813e+04
   1121.0  6.33668e+04
   1122.0  6.34523e+04
   1123.0  6.35379e+04
   1124.0  6.36236e+04
   1125.0  6.37093e+04
   1126.0  6.37950e+04
   1127.0  6.38809e+04
   1128.0  6.39668e+04
   1129.0  6.40527e+04
   1130.0  6.41388e+04
   1131.0  6.42248e+04
   1132.0  6.43110e+04
   1133.0  6.43972e+04
   1134.0  6.44834e+04
   1135.0  6.45698e+04
   1136.0  6.46562e+04
   1137.0  6.47426e+04
   1138.0  6.48291e+04
   1139.0  6.49157e+04
   1140.0  6.50023e+04
   1141.0  6.50890e+04
   1142.0  6.51758e+04
   1143.0  6.52626e+04
   1144.0  6.53495e+04
   1145.0  6.54364e+04
   1146.0  6.55234e+04
   1147.0  6.56104e+04
   1148.0  6.56976e+04
   1149.0  6.57848e+04
   1150.0  6.58720e+04
   1151.0  6.59593e+04
   1152.0  6.60467e+04
   1153.0  6.61341e+04
   1154.0  6.62216e+04
   1155.0  6.63091e+04
   1156.0  6.63968e+04
   1157.0  6.64844e+04
   1158.0  6.65722e+04
   1159.0  6.66600e+04
   1160.0  6.67478e+04
   1161.0  6.68357e+04
   1162.0  6.69237e+04
   1163.0  6.70118e+04
   1164.0  6.70999e+04
   1165.0  6.71880e+04
   1166.0  6.72763e+04
   1167.0  6.73646e+04
   1168.0  6.74529e+04
   1169.0  6.75413e+04
   1170.0  6.76298e+04
   1171.0  6.77184e+04
   1172.0  6.78070e+04
   1173.0  6.78956e+04
   1174.0  6.79843e+04
   1175.0  6.80731e+04
   1176.0  6.81620e+04
   1177.0  6.82509e+04
   1178.0  6.83399e+04
   1179.0  6.84289e+04
   1180.0  6.85180e+04
   1181.0  6.86071e+04
   1182.0  6.86964e+04
   1183.0  6.87857e+04
   1184.0  6.88750e+04
   1185.0  6.89644e+04
   1186.0  6.90539e+04
   1187.0  6.91434e+04
   1188.0  6.92330e+04
   1189.0  6.93226e+04
   1190.0  6.94124e+04
   1191.0  6.95021e+04
   1192.0  6.95920e+04
   1193.0  6.96819e+04
   1194.0  6.97719e+04
   1195.0  6.98619e+04
   1196.0  6.99520e+04
   1197.0  7.00421e+04
   1198.0  7.01323e+04
   1199.0  7.02226e+04
   1200.0  7.03130e+04
   1201.0  7.04034e+04
   1202.0  7.04938e+04
   1203.0  7.05844e+04
   1204.0  7.06750e+04
   1205.0  7.07656e+04
   1206.0  7.08563e+04
   1207.0  7.09471e+04
   1208.0  7.10379e+04
   1209.0  7.11288e+04
   1210.0  7.12198e+04
   1211.0  7.13108e+04
   1212.0  7.14019e+04
   1213.0  7.14931e+04
   1214.0  7.15843e+04
   1215.0  7.16756e+04
   1216.0  7.17669e+04
   1217.0  7.18583e+04
   1218.0  7.19498e+04
   1219.0  7.20413e+04
   1220.0  7.21329e+04
   1221.0  7.22246e+04
   1222.0  7.23163e+04
   1223.0  7.24081e+04
   1224.0  7.24999e+04
   1225.0  7.25918e+04
   1226.0  7.26838e+04
   1227.0  7.27758e+04
   1228.0  7.28679e+04
   1229.0  7.29601e+04
   1230.0  7.30523e+04
   1231.0  7.31446e+04
   1232.0  7.32370e+04
   1233.0  7.33294e+04
   1234.0  7.34219e+04
   1235.0  7.35144e+04
   1236.0  7.36070e+04
   1237.0  7.36997e+04
   1238.0  7.37924e+04
   1239.0  7.38852e+04
   1240.0  7.39780e+04
   1241.0  7.40710e+04
   1242.0  7.41639e+04
   1243.0  7.42570e+04
   1244.0  7.43501e+04
   1245.0  7.44433e+04
   1246.0  7.45365e+04
   1247.0  7.46298e+04
   1248.0  7.47232e+04
   1249.0  7.48166e+04
   1250.0  7.49101e+04
   1251.0  7.50036e+04
   1252.0  7.50973e+04
   1253.0  7.51909e+04
   1254.0  7.52847e+04
   1255.0  7.53785e+04
   1256.0  7.54724e+04
   1257.0  7.55663e+04
   1258.0  7.56603e+04
   1259.0  7.57544e+04
   1260.0  7.58485e+04
   1261.0  7.59427e+04
   1262.0  7.60370e+04
   1263.0  7.61313e+04
   1264.0  7.62257e+04
   1265.0  7.63201e+04
   1266.0  7.64146e+04
   1267.0  7.65092e+04
   1268.0  7.66038e+04
   1269.0  7.66985e+04
   1270.0  7.67933e+04
   1271.0  7.68881e+04
   1272.0  7.69830e+04
   1273.0  7.70780e+04
   1274.0  7.71730e+04
   1275.0  7.72681e+04
   1276.0  7.73633e+04
   1277.0  7.74585e+04
   1278.0  7.75538e+04
   1279.0  7.76491e+04
   1280.0  7.77445e+04
   1281.0  7.78400e+04
   1282.0  7.79355e+04
   1283.0  7.80311e+04
   1284.0  7.81268e+04
   1285.0  7.82225e+04
   1286.0  7.83183e+04
   1287.0  7.84142e+04
   1288.0  7.85101e+04
   1289.0  7.86061e+04
   1290.0  7.87022e+04
   1291.0  7.87983e+04
   1292.0  7.88945e+04
   1293.0  7.89907e+04
   1294.0  7.90870e+04
   1295.0  7.91834e+04
   1296.0  7.92798e+04
   1297.0  7.93763e+04
   1298.0  7.94729e+04
   1299.0  7.95696e+04
   1300.0  7.96663e+04
   1301.0  7.97630e+04
   1302.0  7.98599e+04
   1303.0  7.99568e+04
   1304.0  8.00537e+04
   1305.0  8.01507e+04
   1306.0  8.02478e+04
   1307.0  8.03450e+04
   1308.0  8.04422e+04
   1309.0  8.05395e+04
   1310.0  8.06369e+04
   1311.0  8.07343e+04
   1312.0  8.08318e+04
   1313.0  8.09293e+04
   1314.0  8.10269e+04
   1315.0  8.11246e+04
   1316.0  8.12223e+04
   1317.0  8.13201e+04
   1318.0  8.14180e+04
   1319.0  8.15160e+04
   1320.0  8.16140e+04
   1321.0  8.17120e+04
   1322.0  8.18102e+04
   1323.0  8.19084e+04
   1324.0  8.20066e+04
   1325.0  8.21050e+04
   1326.0  8.22034e+04
   1327.0  8.23018e+04
   1328.0  8.24004e+04
   1329.0  8.24990e+04
   1330.0  8.25976e+04
   1331.0  8.26964e+04
   1332.0  8.27951e+04
   1333.0  8.28940e+04
   1334.0  8.29929e+04
   1335.0  8.30919e+04
   1336.0  8.31910e+04
   1337.0  8.32901e+04
   1338.0  8.33893e+04
   1339.0  8.34885e+04
   1340.0  8.35879e+04
   1341.0  8.36873e+04
   1342.0  8.37867e+04
   1343.0  8.38862e+04
   1344.0  8.39858e+04
   1345.0  8.40855e+04
   1346.0  8.41852e+04
   1347.0  8.42850e+04
   1348.0  8.43848e+04
   1349.0  8.44847e+04
   1350.0  8.45847e+04
   1351.0  8.46848e+04
   1352.0  8.47849e+04
   1353.0  8.48850e+04
   1354.0  8.49853e+04
   1355.0  8.50856e+04
   1356.0  8.51860e+04
   1357.0  8.52864e+04
   1358.0  8.53870e+04
   1359.0  8.54875e+04
   1360.0  8.55882e+04
   1361.0  8.56889e+04
   1362.0  8.57897e+04
   1363.0  8.58905e+04
   1364.0  8.59914e+04
   1365.0  8.60924e+04
   1366.0  8.61935e+04
   1367.0  8.62946e+04
   1368.0  8.63958e+04
   1369.0  8.64970e+04
   1370.0  8.65983e+04
   1371.0  8.66997e+04
   1372.0  8.68012e+04
   1373.0  8.69027e+04
   1374.0  8.70042e+04
   1375.0  8.71059e+04
   1376.0  8.72076e+04
   1377.0  8.73094e+04
   1378.0  8.74113e+04
   1379.0  8.75132e+04
   1380.0  8.76152e+04
   1381.0  8.77172e+04
   1382.0  8.78193e+04
   1383.0  8.79215e+04
   1384.0  8.80238e+04
   1385.0  8.81261e+04
   1386.0  8.82285e+04
   1387.0  8.83309e+04
   1388.0  8.84335e+04
   1389.0  8.85361e+04
   1390.0  8.86387e+04
   1391.0  8.87415e+04
   1392.0  8.88443e+04
   1393.0  8.89471e+04
   1394.0  8.90500e+04
   1395.0  8.91530e+04
   1396.0  8.92561e+04
   1397.0  8.93592e+04
   1398.0  8.94625e+04
   1399.0  8.95657e+04
   1400.0  8.96691e+04
   1401.0  8.97725e+04
   1402.0  8.98759e+04
   1403.0  8.99795e+04
   1404.0  9.00831e+04
   1405.0  9.01868e+04
   1406.0  9.02905e+04
   1407.0  9.03943e+04
   1408.0  9.04982e+04
   1409.0  9.06022e+04
   1410.0  9.07062e+04
   1411.0  9.08103e+04
   1412.0  9.09144e+04
   1413.0  9.10187e+04
   1414.0  9.11230e+04
   1415.0  9.12273e+04
   1416.0  9.13317e+04
   1417.0  9.14362e+04
   1418.0  9.15408e+04
   1419.0  9.16454e+04
   1420.0  9.17502e+04
   1421.0  9.18549e+04
   1422.0  9.19598e+04
   1423.0  9.20647e+04
   1424.0  9.21697e+04
   1425.0  9.22747e+04
   1426.0  9.23798e+04
   1427.0  9.24850e+04
   1428.0  9.25903e+04
   1429.0  9.26956e+04
   1430.0  9.28010e+04
   1431.0  9.29064e+04
   1432.0  9.30120e+04
   1433.0  9.31176e+04
   1434.0  9.32232e+04
   1435.0  9.33290e+04
   1436.0  9.34348e+04
   1437.0  9.35407e+04
   1438.0  9.36466e+04
   1439.0  9.37526e+04
   1440.0  9.38587e+04
   1441.0  9.39649e+04
   1442.0  9.40711e+04
   1443.0  9.41774e+04
   1444.0  9.42837e+04
   1445.0  9.43902e+04
   1446.0  9.44967e+04
   1447.0  9.46032e+04
   1448.0  9.47099e+04
   1449.0  9.48166e+04
   1450.0  9.49234e+04
   1451.0  9.50302e+04
   1452.0  9.51371e+04
   1453.0  9.52441e+04
   1454.0  9.53512e+04
   1455.0  9.54583e+04
   1456.0  9.55655e+04
   1457.0  9.56728e+04
   1458.0  9.57801e+04
   1459.0  9.58875e+04
   1460.0  9.59950e+04
   1461.0  9.61026e+04
   1462.0  9.62102e+04
   1463.0  9.63179e+04
   1464.0  9.64256e+04
   1465.0  9.65335e+04
   1466.0  9.66414e+04
   1467.0  9.67493e+04
   1468.0  9.68574e+04
   1469.0  9.69655e+04
   1470.0  9.70737e+04
   1471.0  9.71819e+04
   1472.0  9.72903e+04
   1473.0  9.73986e+04
   1474.0  9.75071e+04
   1475.0  9.76156e+04
   1476.0  9.77243e+04
   1477.0  9.78329e+04
   1478.0  9.79417e+04
   1479.0  9.80505e+04
   1480.0  9.81594e+04
   1481.0  9.82683e+04
   1482.0  9.83774e+04
   1483.0  9.84865e+04
   1484.0  9.85957e+04
   1485.0  9.87049e+04
   1486.0  9.88142e+04
   1487.0  9.89236e+04
   1488.0  9.90331e+04
   1489.0  9.91426e+04
   1490.0  9.92522e+04
   1491.0  9.93619e+04
   1492.0  9.94716e+04
   1493.0  9.95814e+04
   1494.0  9.96913e+04
   1495.0  9.98013e+04
   1496.0  9.99113e+04
   1497.0  1.00021e+05
   1498.0  1.00132e+05
   1499.0  1.00242e+05
   1500.0  1.00352e+05
   1501.0  1.00463e+05
   1502.0  1.00573e+05
   1503.0  1.00684e+05
   1504.0  1.00794e+05
   1505.0  1.00905e+05
   1506.0  1.01016e+05
   1507.0  1.01126e+05
   1508.0  1.01237e+05
   1509.0  1.01348e+05
   1510.0  1.01459e+05
   1511.0  1.01570e+05
   1512.0  1.01682e+05
   1513.0  1.01793e+05
   1514.0  1.01904e+05
   1515.0  1.02015e+05
   1516.0  1.02127e+05
   1517.0  1.02238e+05
   1518.0  1.02350e+05
   1519.0  1.02462e+05
   1520.0  1.02574e+05
   1521.0  1.02685e+05
   1522.0  1.02797e+05
   1523.0  1.02909e+05
   1524.0  1.03021e+05
   1525.0  1.03133e+05
   1526.0  1.03246e+05
   1527.0  1.03358e+05
   1528.0  1.03470e+05
   1529.0  1.03583e+05
   1530.0  1.03695e+05
   1531.0  1.03808e+05
   1532.0  1.03920e+05
   1533.0  1.04033e+05
   1534.0  1.04146e+05
   1535.0  1.04259e+05
   1536.0  1.04372e+05
   1537.0  1.04485e+05
   1538.0  1.04598e+05
   1539.0  1.04711e+05
   1540.0  1.04824e+05
   1541.0  1.04937e+05
   1542.0  1.05051e+05
   1543.0  1.05164e+05
   1544.0  1.05278e+05
   1545.0  1.05391e+05
   1546.0  1.05505e+05
   1547.0  1.05619e+05
   1548.0  1.05732e+05
   1549.0  1.05846e+05
   1550.0  1.05960e+05
   1551.0  1.06074e+05
   1552.0  1.06188e+05
   1553.0  1.06303e+05
   1554.0  1.06417e+05
   1555.0  1.06531e+05
   1556.0  1.06646e+05
   1557.0  1.06760e+05
   1558.0  1.06875e+05
   1559.0  1.06989e+05
   1560.0  1.07104e+05
   1561.0  1.07219e+05
   1562.0  1.07333e+05
   1563.0  1.07448e+05
   1564.0  1.07563e+05
   1565.0  1.07678e+05
   1566.0  1.07794e+05
   1567.0  1.07909e+05
   1568.0  1.08024e+05
   1569.0  1.08139e+05
   1570.0  1.08255e+05
   1571.0  1.08370e+05
   1572.0  1.08486e+05
   1573.0  1.08602e+05
   1574.0  1.08717e+05
   1575.0  1.08833e+05
   1576.0  1.08949e+05
   1577.0  1.09065e+05
   1578.0  1.09181e+05
   1579.0  1.09297e+05
   1580.0  1.09413e+05
   1581.0  1.09530e+05
   1582.0  1.09646e+05
   1583.0  1.09762e+05
   1584.0  1.09879e+05
   1585.0  1.09995e+05
   1586.0  1.10112e+05
   1587.0  1.10229e+05
   1588.0  1.10346e+05
   1589.0  1.10462e+05
   1590.0  1.10579e+05
   1591.0  1.10696e+05
   1592.0  1.10814e+05
   1593.0  1.10931e+05
   1594.0  1.11048e+05
   1595.0  1.11165e+05
   1596.0  1.11283e+05
   1597.0  1.11400e+05
   1598.0  1.11518e+05
   1599.0  1.11635e+05
   1600.0  1.11753e+05
   1601.0  1.11871e+05
   1602.0  1.11989e+05
   1603.0  1.12107e+05
   1604.0  1.12225e+05
   1605.0  1.12343e+05
   1606.0  1.12461e+05
   1607.0  1.12579e+05
   1608.0  1.12697e+05
   1609.0  1.12816e+05
   1610.0  1.12934e+05
   1611.0  1.13053e+05
   1612.0  1.13171e+05
   1613.0  1.13290e+05
   1614.0  1.13409e+05
   1615.0  1.13528e+05
   1616.0  1.13647e+05
   1617.0  1.13766e+05
   1618.0  1.13885e+05
   1619.0  1.14004e+05
   1620.0  1.14123e+05
   1621.0  1.14243e+05
   1622.0  1.14362e+05
   1623.0  1.14481e+05
   1624.0  1.14601e+05
   1625.0  1.14721e+05
   1626.0  1.14840e+05
   1627.0  1.14960e+05
   1628.0  1.15080e+05
   1629.0  1.15200e+05
   1630.0  1.15320e+05
   1631.0  1.15440e+05
   1632.0  1.15560e+05
   1633.0  1.15680e+05
   1634.0  1.15801e+05
   1635.0  1.15921e+05
   1636.0  1.16042e+05
   1637.0  1.16162e+05
   1638.0  1.16283e+05
   1639.0  1.16403e+05
   1640.0  1.16524e+05
   1641.0  1.16645e+05
   1642.0  1.16766e+05
   1643.0  1.16887e+05
   1644.0  1.17008e+05
   1645.0  1.17129e+05
   1646.0  1.17251e+05
   1647.0  1.17372e+05
   1648.0  1.17493e+05
   1649.0  1.17615e+05
   1650.0  1.17736e+05
   1651.0  1.17858e+05
   1652.0  1.17980e+05
   1653.0  1.18102e+05
   1654.0  1.18224e+05
   1655.0  1.18346e+05
   1656.0  1.18468e+05
   1657.0  1.18590e+05
   1658.0  1.18712e+05
   1659.0  1.18834e+05
   1660.0  1.18957e+05
   1661.0  1.19079e+05
   1662.0  1.19202e+05
   1663.0  1.19324e+05
   1664.0  1.19447e+05
   1665.0  1.19570e+05
   1666.0  1.19692e+05
   1667.0  1.19815e+05
   1668.0  1.19938e+05
   1669.0  1.20061e+05
   1670.0  1.20185e+05
   1671.0  1.20308e+05
   1672.0  1.20431e+05
   1673.0  1.20555e+05
   1674.0  1.20678e+05
   1675.0  1.20802e+05
   1676.0  1.20925e+05
   1677.0  1.21049e+05
   1678.0  1.21173e+05
   1679.0  1.21297e+05
   1680.0  1.21421e+05
   1681.0  1.21545e+05
   1682.0  1.21669e+05
   1683.0  1.21793e+05
   1684.0  1.21917e+05
   1685.0  1.22042e+05
   1686.0  1.22166e+05
   1687.0  1.22291e+05
   1688.0  1.22415e+05
   1689.0  1.22540e+05
   1690.0  1.22665e+05
   1691.0  1.22789e+05
   1692.0  1.22914e+05
   1693.0  1.23039e+05
   1694.0  1.23164e+05
   1695.0  1.23290e+05
   1696.0  1.23415e+05
   1697.0  1.23540e+05
   1698.0  1.23666e+05
   1699.0  1.23791e+05
   1700.0  1.23917e+05
   1701.0  1.24042e+05
   1702.0  1.24168e+05
   1703.0  1.24294e+05
   1704.0  1.24420e+05
   1705.0  1.24546e+05
   1706.0  1.24672e+05
   1707.0  1.24798e+05
   1708.0  1.24924e+05
   1709.0  1.25051e+05
   1710.0  1.25177e+05
   1711.0  1.25303e+05
   1712.0  1.25430e+05
   1713.0  1.25557e+05
   1714.0  1.25683e+05
   1715.0  1.25810e+05
   1716.0  1.25937e+05
   1717.0  1.26064e+05
   1718.0  1.26191e+05
   1719.0  1.26318e+05
   1720.0  1.26445e+05
   1721.0  1.26573e+05
   1722.0  1.26700e+05
   1723.0  1.26828e+05
   1724.0  1.26955e+05
   1725.0  1.27083e+05
   1726.0  1.27210e+05
   1727.0  1.27338e+05
   1728.0  1.27466e+05
   1729.0  1.27594e+05
   1730.0  1.27722e+05
   1731.0  1.27850e+05
   1732.0  1.27978e+05
   1733.0  1.28107e+05
   1734.0  1.28235e+05
   1735.0  1.28364e+05
   1736.0  1.28492e+05
   1737.0  1.28621e+05
   1738.0  1.28749e+05
   1739.0  1.28878e+05
   1740.0  1.29007e+05
   1741.0  1.29136e+05
   1742.0  1.29265e+05
   1743.0  1.29394e+05
   1744.0  1.29523e+05
   1745.0  1.29653e+05
   1746.0  1.29782e+05
   1747.0  1.29912e+05
   1748.0  1.30041e+05
   1749.0  1.30171e+05
   1750.0  1.30301e+05
   1751.0  1.30430e+05
   1752.0  1.30560e+05
   1753.0  1.30690e+05
   1754.0  1.30820e+05
   1755.0  1.30950e+05
   1756.0  1.31081e+05
   1757.0  1.31211e+05
   1758.0  1.31341e+05
   1759.0  1.31472e+05
   1760.0  1.31602e+05
   1761.0  1.31733e+05
   1762.0  1.31864e+05
   1763.0  1.31995e+05
   1764.0  1.32125e+05
   1765.0  1.32256e+05
   1766.0  1.32388e+05
   1767.0  1.32519e+05
   1768.0  1.32650e+05
   1769.0  1.32781e+05
   1770.0  1.32913e+05
   1771.0  1.33044e+05
   1772.0  1.33176e+05
   1773.0  1.33307e+05
   1774.0  1.33439e+05
   1775.0  1.33571e+05
   1776.0  1.33703e+05
   1777.0  1.33835e+05
   1778.0  1.33967e+05
   1779.0  1.34099e+05
   1780.0  1.34232e+05
   1781.0  1.34364e+05
   1782.0  1.34496e+05
   1783.0  1.34629e+05
   1784.0  1.34762e+05
   1785.0  1.34894e+05
   1786.0  1.35027e+05
   1787.0  1.35160e+05
   1788.0  1.35293e+05
   1789.0  1.35426e+05
   1790.0  1.35559e+05
   1791.0  1.35692e+05
   1792.0  1.35826e+05
   1793.0  1.35959e+05
   1794.0  1.36092e+05
   1795.0  1.36226e+05
   1796.0  1.36360e+05
   1797.0  1.36493e+05
   1798.0  1.36627e+05
   1799.0  1.36761e+05
   1800.0  1.36895e+05
   1801.0  1.37029e+05
   1802.0  1.37163e+05
   1803.0  1.37298e+05
   1804.0  1.37432e+05
   1805.0  1.37567e+05
   1806.0  1.37701e+05
   1807.0  1.37836e+05
   1808.0  1.37970e+05
   1809.0  1.38105e+05
   1810.0  1.38240e+05
   1811.0  1.38375e+05
   1812.0  1.38510e+05
   1813.0  1.38645e+05
   1814.0  1.38781e+05
   1815.0  1.38916e+05
   1816.0  1.39051e+05
   1817.0  1.39187e+05
   1818.0  1.39322e+05
   1819.0  1.39458e+05
   1820.0  1.39594e+05
   1821.0  1.39730e+05
   1822.0  1.39866e+05
   1823.0  1.40002e+05
   1824.0  1.40138e+05
   1825.0  1.40274e+05
   1826.0  1.40410e+05
   1827.0  1.40547e+05
   1828.0  1.40683e+05
   1829.0  1.40820e+05
   1830.0  1.40956e+05
   1831.0  1.41093e+05
   1832.0  1.41230e+05
   1833.0  1.41367e+05
   1834.0  1.41504e+05
   1835.0  1.41641e+05
   1836.0  1.41778e+05
   1837.0  1.41915e+05
   1838.0  1.42053e+05
   1839.0  1.42190e+05
   1840.0  1.42328e+05
   1841.0  1.42465e+05
   1842.0  1.42603e+05
   1843.0  1.42741e+05
   1844.0  1.42879e+05
   1845.0  1.43017e+05
   1846.0  1.43155e+05
   1847.0  1.43293e+05
   1848.0  1.43432e+05
   1849.0  1.43570e+05
   1850.0  1.43708e+05
   1851.0  1.43847e+05
   1852.0  1.43986e+05
   1853.0  1.44124e+05
   1854.0  1.44263e+05
   1855.0  1.44402e+05
   1856.0  1.44541e+05
   1857.0  1.44680e+05
   1858.0  1.44819e+05
   1859.0  1.44959e+05
   1860.0  1.45098e+05
   1861.0  1.45237e+05
   1862.0  1.45377e+05
   1863.0  1.45517e+05
   1864.0  1.45656e+05
   1865.0  1.45796e+05
   1866.0  1.45936e+05
   1867.0  1.46076e+05
   1868.0  1.46216e+05
   1869.0  1.46356e+05
   1870.0  1.46497e+05
   1871.0  1.46637e+05
   1872.0  1.46777e+05
   1873.0  1.46918e+05
   1874.0  1.47059e+05
   1875.0  1.47199e+05
   1876.0  1.47340e+05
   1877.0  1.47481e+05
   1878.0  1.47622e+05
   1879.0  1.47763e+05
   1880.0  1.47904e+05
   1881.0  1.48046e+05
   1882.0  1.48187e+05
   1883.0  1.48329e+05
   1884.0  1.48470e+05
   1885.0  1.48612e+05
   1886.0  1.48754e+05
   1887.0  1.48895e+05
   1888.0  1.49037e+05
   1889.0  1.49179e+05
   1890.0  1.49322e+05
   1891.0  1.49464e+05
   1892.0  1.49606e+05
   1893.0  1.49749e+05
   1894.0  1.49891e+05
   1895.0  1.50034e+05
   1896.0  1.50176e+05
   1897.0  1.50319e+05
   1898.0  1.50462e+05
   1899.0  1.50605e+05
   1900.0  1.50748e+05
   1901.0  1.50891e+05
   1902.0  1.51035e+05
   1903.0  1.51178e+05
   1904.0  1.51321e+05
   1905.0  1.51465e+05
   1906.0  1.51608e+05
   1907.0  1.51752e+05
   1908.0  1.51896e+05
   1909.0  1.52040e+05
   1910.0  1.52184e+05
   1911.0  1.52328e+05
   1912.0  1.52472e+05
   1913.0  1.52617e+05
   1914.0  1.52761e+05
   1915.0  1.52905e+05
   1916.0  1.53050e+05
   1917.0  1.53195e+05
   1918.0  1.53339e+05
   1919.0  1.53484e+05
   1920.0  1.53629e+05
   1921.0  1.53774e+05
   1922.0  1.53920e+05
   1923.0  1.54065e+05
   1924.0  1.54210e+05
   1925.0  1.54356e+05
   1926.0  1.54501e+05
   1927.0  1.54647e+05
   1928.0  1.54792e+05
   1929.0  1.54938e+05
   1930.0  1.55084e+05
   1931.0  1.55230e+05
   1932.0  1.55376e+05
   1933.0  1.55523e+05
   1934.0  1.55669e+05
   1935.0  1.55815e+05
   1936.0  1.55962e+05
   1937.0  1.56108e+05
   1938.0  1.56255e+05
   1939.0  1.56402e+05
   1940.0  1.56549e+05
   1941.0  1.56696e+05
   1942.0  1.56843e+05
   1943.0  1.56990e+05
   1944.0  1.57137e+05
   1945.0  1.57285e+05
   1946.0  1.57432e+05
   1947.0  1.57580e+05
   1948.0  1.57727e+05
   1949.0  1.57875e+05
   1950.0  1.58023e+05
   1951.0  1.58171e+05
   1952.0  1.58319e+05
   1953.0  1.58467e+05
   1954.0  1.58615e+05
   1955.0  1.58764e+05
   1956.0  1.58912e+05
   1957.0  1.59061e+05
   1958.0  1.59209e+05
   1959.0  1.59358e+05
   1960.0  1.59507e+05
   1961.0  1.59656e+05
   1962.0  1.59805e+05
   1963.0  1.59954e+05
   1964.0  1.60103e+05
   1965.0  1.60253e+05
   1966.0  1.60402e+05
   1967.0  1.60552e+05
   1968.0  1.60701e+05
   1969.0  1.60851e+05
   1970.0  1.61001e+05
   1971.0  1.61151e+05
   1972.0  1.61301e+05
   1973.0  1.61451e+05
   1974.0  1.61601e+05
   1975.0  1.61751e+05
   1976.0  1.61902e+05
   1977.0  1.62052e+05
   1978.0  1.62203e+05
   1979.0  1.62354e+05
   1980.0  1.62504e+05
   1981.0  1.62655e+05
   1982.0  1.62806e+05
   1983.0  1.62958e+05
   1984.0  1.63109e+05
   1985.0  1.63260e+05
   1986.0  1.63412e+05
   1987.0  1.63563e+05
   1988.0  1.63715e+05
   1989.0  1.63866e+05
   1990.0  1.64018e+05
   1991.0  1.64170e+05
   1992.0  1.64322e+05
   1993.0  1.64474e+05
   1994.0  1.64627e+05
   1995.0  1.64779e+05
   1996.0  1.64931e+05
   1997.0  1.65084e+05
   1998.0  1.65236e+05
   1999.0  1.65389e+05
   2000.0  1.65542e+05
   2001.0  1.65695e+05
   2002.0  1.65848e+05
   2003.0  1.66001e+05
   2004.0  1.66154e+05
   2005.0  1.66308e+05
   2006.0  1.66461e+05
   2007.0  1.66615e+05
   2008.0  1.66768e+05
   2009.0  1.66922e+05
   2010.0  1.67076e+05
   2011.0  1.67230e+05
   2012.0  1.67384e+05
   2013.0  1.67538e+05
   2014.0  1.67692e+05
   2015.0  1.67847e+05
   2016.0  1.68001e+05
   2017.0  1.68156e+05
   2018.0  1.68310e+05
   2019.0  1.68465e+05
   2020.0  1.68620e+05
   2021.0  1.68775e+05
   2022.0  1.68930e+05
   2023.0  1.69085e+05
   2024.0  1.69241e+05
   2025.0  1.69396e+05
   2026.0  1.69551e+05
   2027.0  1.69707e+05
   2028.0  1.69863e+05
   2029.0  1.70019e+05
   2030.0  1.70174e+05
   2031.0  1.70330e+05
   2032.0  1.70487e+05
   2033.0  1.70643e+05
   2034.0  1.70799e+05
   2035.0  1.70956e+05
   2036.0  1.71112e+05
   2037.0  1.71269e+05
   2038.0  1.71425e+05
   2039.0  1.71582e+05
   2040.0  1.71739e+05
   2041.0  1.71896e+05
   2042.0  1.72053e+05
   2043.0  1.72211e+05
   2044.0  1.72368e+05
   2045.0  1.72526e+05
   2046.0  1.72683e+05
   2047.0  1.72841e+05
   2048.0  1.72999e+05
   2049.0  1.73157e+05
   2050.0  1.73315e+05
   2051.0  1.73473e+05
   2052.0  1.73631e+05
   2053.0  1.73789e+05
   2054.0  1.73948e+05
   2055.0  1.74106e+05
   2056.0  1.74265e+05
   2057.0  1.74423e+05
   2058.0  1.74582e+05
   2059.0  1.74741e+05
   2060.0  1.74900e+05
   2061.0  1.75059e+05
   2062.0  1.75219e+05
   2063.0  1.75378e+05
   2064.0  1.75538e+05
   2065.0  1.75697e+05
   2066.0  1.75857e+05
   2067.0  1.76017e+05
   2068.0  1.76177e+05
   2069.0  1.76337e+05
   2070.0  1.76497e+05
   2071.0  1.76657e+05
   2072.0  1.76817e+05
   2073.0  1.76978e+05
   2074.0  1.77138e+05
   2075.0  1.77299e+05
   2076.0  1.77460e+05
   2077.0  1.77621e+05
   2078.0  1.77782e+05
   2079.0  1.77943e+05
   2080.0  1.78104e+05
   2081.0  1.78265e+05
   2082.0  1.78427e+05
   2083.0  1.78588e+05
   2084.0  1.78750e+05
   2085.0  1.78911e+05
   2086.0  1.79073e+05
   2087.0  1.79235e+05
   2088.0  1.79397e+05
   2089.0  1.79559e+05
   2090.0  1.79722e+05
   2091.0  1.79884e+05
   2092.0  1.80047e+05
   2093.0  1.80209e+05
   2094.0  1.80372e+05
   2095.0  1.80535e+05
   2096.0  1.80698e+05
   2097.0  1.80861e+05
   2098.0  1.81024e+05
   2099.0  1.81187e+05
   2100.0  1.81350e+05
   2101.0  1.81514e+05
   2102.0  1.81677e+05
   2103.0  1.81841e+05
   2104.0  1.82005e+05
   2105.0  1.82169e+05
   2106.0  1.82333e+05
   2107.0  1.82497e+05
   2108.0  1.82661e+05
   2109.0  1.82826e+05
   2110.0  1.82990e+05
   2111.0  1.83155e+05
   2112.0  1.83319e+05
   2113.0  1.83484e+05
   2114.0  1.83649e+05
   2115.0  1.83814e+05
   2116.0  1.83979e+05
   2117.0  1.84144e+05
   2118.0  1.84310e+05
   2119.0  1.84475e+05
   2120.0  1.84641e+05
   2121.0  1.84806e+05
   2122.0  1.84972e+05
   2123.0  1.85138e+05
   2124.0  1.85304e+05
   2125.0  1.85470e+05
   2126.0  1.85637e+05
   2127.0  1.85803e+05
   2128.0  1.85969e+05
   2129.0  1.86136e+05
   2130.0  1.86303e+05
   2131.0  1.86469e+05
   2132.0  1.86636e+05
   2133.0  1.86803e+05
   2134.0  1.86970e+05
   2135.0  1.87138e+05
   2136.0  1.87305e+05
   2137.0  1.87473e+05
   2138.0  1.87640e+05
   2139.0  1.87808e+05
   2140.0  1.87976e+05
   2141.0  1.88144e+05
   2142.0  1.88312e+05
   2143.0  1.88480e+05
   2144.0  1.88648e+05
   2145.0  1.88816e+05
   2146.0  1.88985e+05
   2147.0  1.89153e+05
   2148.0  1.89322e+05
   2149.0  1.89491e+05
   2150.0  1.89660e+05
   2151.0  1.89829e+05
   2152.0  1.89998e+05
   2153.0  1.90167e+05
   2154.0  1.90337e+05
   2155.0  1.90506e+05
   2156.0  1.90676e+05
   2157.0  1.90846e+05
   2158.0  1.91015e+05
   2159.0  1.91185e+05
   2160.0  1.91355e+05
   2161.0  1.91526e+05
   2162.0  1.91696e+05
   2163.0  1.91866e+05
   2164.0  1.92037e+05
   2165.0  1.92208e+05
   2166.0  1.92378e+05
   2167.0  1.92549e+05
   2168.0  1.92720e+05
   2169.0  1.92891e+05
   2170.0  1.93063e+05
   2171.0  1.93234e+05
   2172.0  1.93405e+05
   2173.0  1.93577e+05
   2174.0  1.93749e+05
   2175.0  1.93920e+05
   2176.0  1.94092e+05
   2177.0  1.94264e+05
   2178.0  1.94437e+05
   2179.0  1.94609e+05
   2180.0  1.94781e+05
   2181.0  1.94954e+05
   2182.0  1.95126e+05
   2183.0  1.95299e+05
   2184.0  1.95472e+05
   2185.0  1.95645e+05
   2186.0  1.95818e+05
   2187.0  1.95991e+05
   2188.0  1.96164e+05
   2189.0  1.96338e+05
   2190.0  1.96511e+05
   2191.0  1.96685e+05
   2192.0  1.96859e+05
   2193.0  1.97033e+05
   2194.0  1.97207e+05
   2195.0  1.97381e+05
   2196.0  1.97555e+05
   2197.0  1.97730e+05
   2198.0  1.97904e+05
   2199.0  1.98079e+05
   2200.0  1.98253e+05
   2201.0  1.98428e+05
   2202.0  1.98603e+05
   2203.0  1.98778e+05
   2204.0  1.98954e+05
   2205.0  1.99129e+05
   2206.0  1.99304e+05
   2207.0  1.99480e+05
   2208.0  1.99655e+05
   2209.0  1.99831e+05
   2210.0  2.00007e+05
   2211.0  2.00183e+05
   2212.0  2.00359e+05
   2213.0  2.00536e+05
   2214.0  2.00712e+05
   2215.0  2.00889e+05
   2216.0  2.01065e+05
   2217.0  2.01242e+05
   2218.0  2.01419e+05
   2219.0  2.01596e+05
   2220.0  2.01773e+05
   2221.0  2.01950e+05
   2222.0  2.02127e+05
   2223.0  2.02305e+05
   2224.0  2.02482e+05
   2225.0  2.02660e+05
   2226.0  2.02838e+05
   2227.0  2.03016e+05
   2228.0  2.03194e+05
   2229.0  2.03372e+05
   2230.0  2.03550e+05
   2231.0  2.03729e+05
   2232.0  2.03907e+05
   2233.0  2.04086e+05
   2234.0  2.04265e+05
   2235.0  2.04444e+05
   2236.0  2.04623e+05
   2237.0  2.04802e+05
   2238.0  2.04981e+05
   2239.0  2.05161e+05
   2240.0  2.05340e+05
   2241.0  2.05520e+05
   2242.0  2.05700e+05
   2243.0  2.05879e+05
   2244.0  2.06059e+05
   2245.0  2.06240e+05
   2246.0  2.06420e+05
   2247.0  2.06600e+05
   2248.0  2.06781e+05
   2249.0  2.06961e+05
   2250.0  2.07142e+05
   2251.0  2.07323e+05
   2252.0  2.07504e+05
   2253.0  2.07685e+05
   2254.0  2.07866e+05
   2255.0  2.08048e+05
   2256.0  2.08229e+05
   2257.0  2.08411e+05
   2258.0  2.08592e+05
   2259.0  2.08774e+05
   2260.0  2.08956e+05
   2261.0  2.09138e+05
   2262.0  2.09320e+05
   2263.0  2.09503e+05
   2264.0  2.09685e+05
   2265.0  2.09868e+05
   2266.0  2.10051e+05
   2267.0  2.10233e+05
   2268.0  2.10416e+05
   2269.0  2.10599e+05
   2270.0  2.10783e+05
   2271.0  2.10966e+05
   2272.0  2.11149e+05
   2273.0  2.11333e+05
   2274.0  2.11517e+05
   2275.0  2.11701e+05
   2276.0  2.11885e+05
   2277.0  2.12069e+05
   2278.0  2.12253e+05
   2279.0  2.12437e+05
   2280.0  2.12622e+05
   2281.0  2.12806e+05
   2282.0  2.12991e+05
   2283.0  2.13176e+05
   2284.0  2.13361e+05
   2285.0  2.13546e+05
   2286.0  2.13731e+05
   2287.0  2.13916e+05
   2288.0  2.14102e+05
   2289.0  2.14287e+05
   2290.0  2.14473e+05
   2291.0  2.14659e+05
   2292.0  2.14845e+05
   2293.0  2.15031e+05
   2294.0  2.15217e+05
   2295.0  2.15403e+05
   2296.0  2.15590e+05
   2297.0  2.15777e+05
   2298.0  2.15963e+05
   2299.0  2.16150e+05
   2300.0  2.16337e+05
   2301.0  2.16524e+05
   2302.0  2.16711e+05
   2303.0  2.16899e+05
   2304.0  2.17086e+05
   2305.0  2.17274e+05
   2306.0  2.17462e+05
   2307.0  2.17650e+05
   2308.0  2.17838e+05
   2309.0  2.18026e+05
   2310.0  2.18214e+05
   2311.0  2.18402e+05
   2312.0  2.18591e+05
   2313.0  2.18779e+05
   2314.0  2.18968e+05
   2315.0  2.19157e+05
   2316.0  2.19346e+05
   2317.0  2.19535e+05
   2318.0  2.19725e+05
   2319.0  2.19914e+05
   2320.0  2.20104e+05
   2321.0  2.20293e+05
   2322.0  2.20483e+05
   2323.0  2.20673e+05
   2324.0  2.20863e+05
   2325.0  2.21053e+05
   2326.0  2.21243e+05
   2327.0  2.21434e+05
   2328.0  2.21624e+05
   2329.0  2.21815e+05
   2330.0  2.22006e+05
   2331.0  2.22197e+05
   2332.0  2.22388e+05
   2333.0  2.22579e+05
   2334.0  2.22771e+05
   2335.0  2.22962e+05
   2336.0  2.23154e+05
   2337.0  2.23346e+05
   2338.0  2.23537e+05
   2339.0  2.23729e+05
   2340.0  2.23922e+05
   2341.0  2.24114e+05
   2342.0  2.24306e+05
   2343.0  2.24499e+05
   2344.0  2.24691e+05
   2345.0  2.24884e+05
   2346.0  2.25077e+05
   2347.0  2.25270e+05
   2348.0  2.25463e+05
   2349.0  2.25657e+05
   2350.0  2.25850e+05
   2351.0  2.26044e+05
   2352.0  2.26238e+05
   2353.0  2.26431e+05
   2354.0  2.26625e+05
   2355.0  2.26819e+05
   2356.0  2.27014e+05
   2357.0  2.27208e+05
   2358.0  2.27403e+05
   2359.0  2.27597e+05
   2360.0  2.27792e+05
   2361.0  2.27987e+05
   2362.0  2.28182e+05
   2363.0  2.28377e+05
   2364.0  2.28572e+05
   2365.0  2.28768e+05
   2366.0  2.28964e+05
   2367.0  2.29159e+05
   2368.0  2.29355e+05
   2369.0  2.29551e+05
   2370.0  2.29747e+05
   2371.0  2.29943e+05
   2372.0  2.30140e+05
   2373.0  2.30336e+05
   2374.0  2.30533e+05
   2375.0  2.30730e+05
   2376.0  2.30927e+05
   2377.0  2.31124e+05
   2378.0  2.31321e+05
   2379.0  2.31518e+05
   2380.0  2.31716e+05
   2381.0  2.31913e+05
   2382.0  2.32111e+05
   2383.0  2.32309e+05
   2384.0  2.32507e+05
   2385.0  2.32705e+05
   2386.0  2.32903e+05
   2387.0  2.33102e+05
   2388.0  2.33300e+05
   2389.0  2.33499e+05
   2390.0  2.33698e+05
   2391.0  2.33897e+05
   2392.0  2.34096e+05
   2393.0  2.34295e+05
   2394.0  2.34494e+05
   2395.0  2.34694e+05
   2396.0  2.34893e+05
   2397.0  2.35093e+05
   2398.0  2.35293e+05
   2399.0  2.35493e+05
   2400.0  2.35693e+05
   2401.0  2.35894e+05
   2402.0  2.36094e+05
   2403.0  2.36295e+05
   2404.0  2.36495e+05
   2405.0  2.36696e+05
   2406.0  2.36897e+05
   2407.0  2.37098e+05
   2408.0  2.37300e+05
   2409.0  2.37501e+05
   2410.0  2.37703e+05
   2411.0  2.37904e+05
   2412.0  2.38106e+05
   2413.0  2.38308e+05
   2414.0  2.38510e+05
   2415.0  2.38712e+05
   2416.0  2.38915e+05
   2417.0  2.39117e+05
   2418.0  2.39320e+05
   2419.0  2.39523e+05
   2420.0  2.39726e+05
   2421.0  2.39929e+05
   2422.0  2.40132e+05
   2423.0  2.40335e+05
   2424.0  2.40539e+05
   2425.0  2.40743e+05
   2426.0  2.40946e+05
   2427.0  2.41150e+05
   2428.0  2.41354e+05
   2429.0  2.41558e+05
   2430.0  2.41763e+05
   2431.0  2.41967e+05
   2432.0  2.42172e+05
   2433.0  2.42377e+05
   2434.0  2.42581e+05
   2435.0  2.42786e+05
   2436.0  2.42992e+05
   2437.0  2.43197e+05
   2438.0  2.43402e+05
   2439.0  2.43608e+05
   2440.0  2.43814e+05
   2441.0  2.44020e+05
   2442.0  2.44226e+05
   2443.0  2.44432e+05
   2444.0  2.44638e+05
   2445.0  2.44845e+05
   2446.0  2.45051e+05
   2447.0  2.45258e+05
   2448.0  2.45465e+05
   2449.0  2.45672e+05
   2450.0  2.45879e+05
   2451.0  2.46086e+05
   2452.0  2.46294e+05
   2453.0  2.46501e+05
   2454.0  2.46709e+05
   2455.0  2.46917e+05
   2456.0  2.47125e+05
   2457.0  2.47333e+05
   2458.0  2.47541e+05
   2459.0  2.47750e+05
   2460.0  2.47958e+05
   2461.0  2.48167e+05
   2462.0  2.48376e+05
   2463.0  2.48585e+05
   2464.0  2.48794e+05
   2465.0  2.49003e+05
   2466.0  2.49213e+05
   2467.0  2.49422e+05
   2468.0  2.49632e+05
   2469.0  2.49842e+05
   2470.0  2.50052e+05
   2471.0  2.50262e+05
   2472.0  2.50472e+05
   2473.0  2.50683e+05
   2474.0  2.50893e+05
   2475.0  2.51104e+05
   2476.0  2.51315e+05
   2477.0  2.51526e+05
   2478.0  2.51737e+05
   2479.0  2.51948e+05
   2480.0  2.52160e+05
   2481.0  2.52371e+05
   2482.0  2.52583e+05
   2483.0  2.52795e+05
   2484.0  2.53007e+05
   2485.0  2.53219e+05
   2486.0  2.53431e+05
   2487.0  2.53644e+05
   2488.0  2.53856e+05
   2489.0  2.54069e+05
   2490.0  2.54282e+05
   2491.0  2.54495e+05
   2492.0  2.54708e+05
   2493.0  2.54922e+05
   2494.0  2.55135e+05
   2495.0  2.55349e+05
   2496.0  2.55563e+05
   2497.0  2.55777e+05
   2498.0  2.55991e+05
   2499.0  2.56205e+05
   2500.0  2.56419e+05
   2501.0  2.56634e+05
   2502.0  2.56848e+05
   2503.0  2.57063e+05
   2504.0  2.57278e+05
   2505.0  2.57493e+05
   2506.0  2.57709e+05
   2507.0  2.57924e+05
   2508.0  2.58140e+05
   2509.0  2.58355e+05
   2510.0  2.58571e+05
   2511.0  2.58787e+05
   2512.0  2.59003e+05
   2513.0  2.59220e+05
   2514.0  2.59436e+05
   2515.0  2.59653e+05
   2516.0  2.59869e+05
   2517.0  2.60086e+05
   2518.0  2.60303e+05
   2519.0  2.60520e+05
   2520.0  2.60738e+05
   2521.0  2.60955e+05
   2522.0  2.61173e+05
   2523.0  2.61391e+05
   2524.0  2.61609e+05
   2525.0  2.61827e+05
   2526.0  2.62045e+05
   2527.0  2.62263e+05
   2528.0  2.62482e+05
   2529.0  2.62700e+05
   2530.0  2.62919e+05
   2531.0  2.63138e+05
   2532.0  2.63357e+05
   2533.0  2.63577e+05
   2534.0  2.63796e+05
   2535.0  2.64016e+05
   2536.0  2.64235e+05
   2537.0  2.64455e+05
   2538.0  2.64675e+05
   2539.0  2.64896e+05
   2540.0  2.65116e+05
   2541.0  2.65336e+05
   2542.0  2.65557e+05
   2543.0  2.65778e+05
   2544.0  2.65999e+05
   2545.0  2.66220e+05
   2546.0  2.66441e+05
   2547.0  2.66662e+05
   2548.0  2.66884e+05
   2549.0  2.67106e+05
   2550.0  2.67328e+05
   2551.0  2.67550e+05
   2552.0  2.67772e+05
   2553.0  2.67994e+05
   2554.0  2.68217e+05
   2555.0  2.68439e+05
   2556.0  2.68662e+05
   2557.0  2.68885e+05
   2558.0  2.69108e+05
   2559.0  2.69331e+05
   2560.0  2.69555e+05
   2561.0  2.69778e+05
   2562.0  2.70002e+05
   2563.0  2.70226e+05
   2564.0  2.70450e+05
   2565.0  2.70674e+05
   2566.0  2.70898e+05
   2567.0  2.71123e+05
   2568.0  2.71347e+05
   2569.0  2.71572e+05
   2570.0  2.71797e+05
   2571.0  2.72022e+05
   2572.0  2.72247e+05
   2573.0  2.72473e+05
   2574.0  2.72698e+05
   2575.0  2.72924e+05
   2576.0  2.73150e+05
   2577.0  2.73376e+05
   2578.0  2.73602e+05
   2579.0  2.73828e+05
   2580.0  2.74055e+05
   2581.0  2.74281e+05
   2582.0  2.74508e+05
   2583.0  2.74735e+05
   2584.0  2.74962e+05
   2585.0  2.75189e+05
   2586.0  2.75417e+05
   2587.0  2.75644e+05
   2588.0  2.75872e+05
   2589.0  2.76100e+05
   2590.0  2.76328e+05
   2591.0  2.76556e+05
   2592.0  2.76784e+05
   2593.0  2.77013e+05
   2594.0  2.77242e+05
   2595.0  2.77470e+05
   2596.0  2.77699e+05
   2597.0  2.77929e+05
   2598.0  2.78158e+05
   2599.0  2.78387e+05
   2600.0  2.78617e+05
   2601.0  2.78847e+05
   2602.0  2.79077e+05
   2603.0  2.79307e+05
   2604.0  2.79537e+05
   2605.0  2.79767e+05
   2606.0  2.79998e+05
   2607.0  2.80229e+05
   2608.0  2.80459e+05
   2609.0  2.80690e+05
   2610.0  2.80922e+05
   2611.0  2.81153e+05
   2612.0  2.81385e+05
   2613.0  2.81616e+05
   2614.0  2.81848e+05
   2615.0  2.82080e+05
   2616.0  2.82312e+05
   2617.0  2.82544e+05
   2618.0  2.82777e+05
   2619.0  2.83010e+05
   2620.0  2.83242e+05
   2621.0  2.83475e+05
   2622.0  2.83708e+05
   2623.0  2.83942e+05
   2624.0  2.84175e+05
   2625.0  2.84409e+05
   2626.0  2.84642e+05
   2627.0  2.84876e+05
   2628.0  2.85110e+05
   2629.0  2.85345e+05
   2630.0  2.85579e+05
   2631.0  2.85814e+05
   2632.0  2.86048e+05
   2633.0  2.86283e+05
   2634.0  2.86518e+05
   2635.0  2.86753e+05
   2636.0  2.86989e+05
   2637.0  2.87224e+05
   2638.0  2.87460e+05
   2639.0  2.87696e+05
   2640.0  2.87932e+05
   2641.0  2.88168e+05
   2642.0  2.88404e+05
   2643.0  2.88641e+05
   2644.0  2.88877e+05
   2645.0  2.89114e+05
   2646.0  2.89351e+05
   2647.0  2.89588e+05
   2648.0  2.89826e+05
   2649.0  2.90063e+05
   2650.0  2.90301e+05
   2651.0  2.90539e+05
   2652.0  2.90777e+05
   2653.0  2.91015e+05
   2654.0  2.91253e+05
   2655.0  2.91491e+05
   2656.0  2.91730e+05
   2657.0  2.91969e+05
   2658.0  2.92208e+05
   2659.0  2.92447e+05
   2660.0  2.92686e+05
   2661.0  2.92926e+05
   2662.0  2.93165e+05
   2663.0  2.93405e+05
   2664.0  2.93645e+05
   2665.0  2.93885e+05
   2666.0  2.94125e+05
   2667.0  2.94366e+05
   2668.0  2.94606e+05
   2669.0  2.94847e+05
   2670.0  2.95088e+05
   2671.0  2.95329e+05
   2672.0  2.95570e+05
   2673.0  2.95812e+05
   2674.0  2.96053e+05
   2675.0  2.96295e+05
   2676.0  2.96537e+05
   2677.0  2.96779e+05
   2678.0  2.97021e+05
   2679.0  2.97264e+05
   2680.0  2.97506e+05
   2681.0  2.97749e+05
   2682.0  2.97992e+05
   2683.0  2.98235e+05
   2684.0  2.98478e+05
   2685.0  2.98722e+05
   2686.0  2.98965e+05
   2687.0  2.99209e+05
   2688.0  2.99453e+05
   2689.0  2.99697e+05
   2690.0  2.99941e+05
   2691.0  3.00186e+05
   2692.0  3.00430e+05
   2693.0  3.00675e+05
   2694.0  3.00920e+05
   2695.0  3.01165e+05
   2696.0  3.01410e+05
   2697.0  3.01656e+05
   2698.0  3.01901e+05
   2699.0  3.02147e+05
   2700.0  3.02393e+05
   2701.0  3.02639e+05
   2702.0  3.02885e+05
   2703.0  3.03132e+05
   2704.0  3.03378e+05
   2705.0  3.03625e+05
   2706.0  3.03872e+05
   2707.0  3.04119e+05
   2708.0  3.04366e+05
   2709.0  3.04614e+05
   2710.0  3.04861e+05
   2711.0  3.05109e+05
   2712.0  3.05357e+05
   2713.0  3.05605e+05
   2714.0  3.05854e+05
   2715.0  3.06102e+05
   2716.0  3.06351e+05
   2717.0  3.06600e+05
   2718.0  3.06849e+05
   2719.0  3.07098e+05
   2720.0  3.07347e+05
   2721.0  3.07597e+05
   2722.0  3.07846e+05
   2723.0  3.08096e+05
   2724.0  3.08346e+05
   2725.0  3.08596e+05
   2726.0  3.08847e+05
   2727.0  3.09097e+05
   2728.0  3.09348e+05
   2729.0  3.09599e+05
   2730.0  3.09850e+05
   2731.0  3.10101e+05
   2732.0  3.10352e+05
   2733.0  3.10604e+05
   2734.0  3.10856e+05
   2735.0  3.11108e+05
   2736.0  3.11360e+05
   2737.0  3.11612e+05
   2738.0  3.11864e+05
   2739.0  3.12117e+05
   2740.0  3.12370e+05
   2741.0  3.12623e+05
   2742.0  3.12876e+05
   2743.0  3.13129e+05
   2744.0  3.13383e+05
   2745.0  3.13636e+05
   2746.0  3.13890e+05
   2747.0  3.14144e+05
   2748.0  3.14398e+05
   2749.0  3.14653e+05
   2750.0  3.14907e+05
   2751.0  3.15162e+05
   2752.0  3.15417e+05
   2753.0  3.15672e+05
   2754.0  3.15927e+05
   2755.0  3.16182e+05
   2756.0  3.16438e+05
   2757.0  3.16694e+05
   2758.0  3.16949e+05
   2759.0  3.17206e+05
   2760.0  3.17462e+05
   2761.0  3.17718e+05
   2762.0  3.17975e+05
   2763.0  3.18232e+05
   2764.0  3.18489e+05
   2765.0  3.18746e+05
   2766.0  3.19003e+05
   2767.0  3.19261e+05
   2768.0  3.19518e+05
   2769.0  3.19776e+05
   2770.0  3.20034e+05
   2771.0  3.20292e+05
   2772.0  3.20551e+05
   2773.0  3.20809e+05
   2774.0  3.21068e+05
   2775.0  3.21327e+05
   2776.0  3.21586e+05
   2777.0  3.21845e+05
   2778.0  3.22105e+05
   2779.0  3.22364e+05
   2780.0  3.22624e+05
   2781.0  3.22884e+05
   2782.0  3.23144e+05
   2783.0  3.23405e+05
   2784.0  3.23665e+05
   2785.0  3.23926e+05
   2786.0  3.24187e+05
   2787.0  3.24448e+05
   2788.0  3.24709e+05
   2789.0  3.24970e+05
   2790.0  3.25232e+05
   2791.0  3.25494e+05
   2792.0  3.25756e+05
   2793.0  3.26018e+05
   2794.0  3.26280e+05
   2795.0  3.26543e+05
   2796.0  3.26805e+05
   2797.0  3.27068e+05
   2798.0  3.27331e+05
   2799.0  3.27594e+05
   2800.0  3.27858e+05
   2801.0  3.28121e+05
   2802.0  3.28385e+05
   2803.0  3.28649e+05
   2804.0  3.28913e+05
   2805.0  3.29177e+05
   2806.0  3.29442e+05
   2807.0  3.29706e+05
   2808.0  3.29971e+05
   2809.0  3.30236e+05
   2810.0  3.30501e+05
   2811.0  3.30767e+05
   2812.0  3.31032e+05
   2813.0  3.31298e+05
   2814.0  3.31564e+05
   2815.0  3.31830e+05
   2816.0  3.32096e+05
   2817.0  3.32363e+05
   2818.0  3.32629e+05
   2819.0  3.32896e+05
   2820.0  3.33163e+05
   2821.0  3.33430e+05
   2822.0  3.33698e+05
   2823.0  3.33965e+05
   2824.0  3.34233e+05
   2825.0  3.34501e+05
   2826.0  3.34769e+05
   2827.0  3.35037e+05
   2828.0  3.35306e+05
   2829.0  3.35575e+05
   2830.0  3.35843e+05
   2831.0  3.36112e+05
   2832.0  3.36382e+05
   2833.0  3.36651e+05
   2834.0  3.36921e+05
   2835.0  3.37190e+05
   2836.0  3.37460e+05
   2837.0  3.37730e+05
   2838.0  3.38001e+05
   2839.0  3.38271e+05
   2840.0  3.38542e+05
   2841.0  3.38813e+05
   2842.0  3.39084e+05
   2843.0  3.39355e+05
   2844.0  3.39626e+05
   2845.0  3.39898e+05
   2846.0  3.40170e+05
   2847.0  3.40442e+05
   2848.0  3.40714e+05
   2849.0  3.40986e+05
   2850.0  3.41259e+05
   2851.0  3.41532e+05
   2852.0  3.41805e+05
   2853.0  3.42078e+05
   2854.0  3.42351e+05
   2855.0  3.42624e+05
   2856.0  3.42898e+05
   2857.0  3.43172e+05
   2858.0  3.43446e+05
   2859.0  3.43720e+05
   2860.0  3.43995e+05
   2861.0  3.44269e+05
   2862.0  3.44544e+05
   2863.0  3.44819e+05
   2864.0  3.45094e+05
   2865.0  3.45369e+05
   2866.0  3.45645e+05
   2867.0  3.45921e+05
   2868.0  3.46197e+05
   2869.0  3.46473e+05
   2870.0  3.46749e+05
   2871.0  3.47025e+05
   2872.0  3.47302e+05
   2873.0  3.47579e+05
   2874.0  3.47856e+05
   2875.0  3.48133e+05
   2876.0  3.48411e+05
   2877.0  3.48688e+05
   2878.0  3.48966e+05
   2879.0  3.49244e+05
   2880.0  3.49522e+05
   2881.0  3.49801e+05
   2882.0  3.50079e+05
   2883.0  3.50358e+05
   2884.0  3.50637e+05
   2885.0  3.50916e+05
   2886.0  3.51195e+05
   2887.0  3.51475e+05
   2888.0  3.51754e+05
   2889.0  3.52034e+05
   2890.0  3.52314e+05
   2891.0  3.52595e+05
   2892.0  3.52875e+05
   2893.0  3.53156e+05
   2894.0  3.53437e+05
   2895.0  3.53718e+05
   2896.0  3.53999e+05
   2897.0  3.54280e+05
   2898.0  3.54562e+05
   2899.0  3.54844e+05
   2900.0  3.55126e+05
   2901.0  3.55408e+05
   2902.0  3.55690e+05
   2903.0  3.55973e+05
   2904.0  3.56256e+05
   2905.0  3.56539e+05
   2906.0  3.56822e+05
   2907.0  3.57105e+05
   2908.0  3.57389e+05
   2909.0  3.57672e+05
   2910.0  3.57956e+05
   2911.0  3.58240e+05
   2912.0  3.58525e+05
   2913.0  3.58809e+05
   2914.0  3.59094e+05
   2915.0  3.59379e+05
   2916.0  3.59664e+05
   2917.0  3.59949e+05
   2918.0  3.60234e+05
   2919.0  3.60520e+05
   2920.0  3.60806e+05
   2921.0  3.61092e+05
   2922.0  3.61378e+05
   2923.0  3.61665e+05
   2924.0  3.61951e+05
   2925.0  3.62238e+05
   2926.0  3.62525e+05
   2927.0  3.62812e+05
   2928.0  3.63100e+05
   2929.0  3.63387e+05
   2930.0  3.63675e+05
   2931.0  3.63963e+05
   2932.0  3.64251e+05
   2933.0  3.64540e+05
   2934.0  3.64828e+05
   2935.0  3.65117e+05
   2936.0  3.65406e+05
   2937.0  3.65695e+05
   2938.0  3.65985e+05
   2939.0  3.66274e+05
   2940.0  3.66564e+05
   2941.0  3.66854e+05
   2942.0  3.67144e+05
   2943.0  3.67435e+05
   2944.0  3.67725e+05
   2945.0  3.68016e+05
   2946.0  3.68307e+05
   2947.0  3.68598e+05
   2948.0  3.68889e+05
   2949.0  3.69181e+05
   2950.0  3.69473e+05
   2951.0  3.69765e+05
   2952.0  3.70057e+05
   2953.0  3.70349e+05
   2954.0  3.70642e+05
   2955.0  3.70934e+05
   2956.0  3.71227e+05
   2957.0  3.71520e+05
   2958.0  3.71814e+05
   2959.0  3.72107e+05
   2960.0  3.72401e+05
   2961.0  3.72695e+05
   2962.0  3.72989e+05
   2963.0  3.73283e+05
   2964.0  3.73578e+05
   2965.0  3.73873e+05
   2966.0  3.74168e+05
   2967.0  3.74463e+05
   2968.0  3.74758e+05
   2969.0  3.75054e+05
   2970.0  3.75349e+05
   2971.0  3.75645e+05
   2972.0  3.75941e+05
   2973.0  3.76238e+05
   2974.0  3.76534e+05
   2975.0  3.76831e+05
   2976.0  3.77128e+05
   2977.0  3.77425e+05
   2978.0  3.77722e+05
   2979.0  3.78020e+05
   2980.0  3.78318e+05
   2981.0  3.78615e+05
   2982.0  3.78914e+05
   2983.0  3.79212e+05
   2984.0  3.79511e+05
   2985.0  3.79809e+05
   2986.0  3.80108e+05
   2987.0  3.80407e+05
   2988.0  3.80707e+05
   2989.0  3.81006e+05
   2990.0  3.81306e+05
   2991.0  3.81606e+05
   2992.0  3.81906e+05
   2993.0  3.82207e+05
   2994.0  3.82507e+05
   2995.0  3.82808e+05
   2996.0  3.83109e+05
   2997.0  3.83410e+05
   2998.0  3.83711e+05
   2999.0  3.84013e+05
   3000.0  3.84315e+05
   3001.0  3.84617e+05
   3002.0  3.84919e+05
   3003.0  3.85221e+05
   3004.0  3.85524e+05
   3005.0  3.85827e+05
   3006.0  3.86130e+05
   3007.0  3.86433e+05
   3008.0  3.86737e+05
   3009.0  3.87040e+05
   3010.0  3.87344e+05
   3011.0  3.87648e+05
   3012.0  3.87952e+05
   3013.0  3.88257e+05
   3014.0  3.88561e+05
   3015.0  3.88866e+05
   3016.0  3.89171e+05
   3017.0  3.89477e+05
   3018.0  3.89782e+05
   3019.0  3.90088e+05
   3020.0  3.90394e+05
   3021.0  3.90700e+05
   3022.0  3.91006e+05
   3023.0  3.91313e+05
   3024.0  3.91619e+05
   3025.0  3.91926e+05
   3026.0  3.92234e+05
   3027.0  3.92541e+05
   3028.0  3.92848e+05
   3029.0  3.93156e+05
   3030.0  3.93464e+05
   3031.0  3.93772e+05
   3032.0  3.94081e+05
   3033.0  3.94389e+05
   3034.0  3.94698e+05
   3035.0  3.95007e+05
   3036.0  3.95316e+05
   3037.0  3.95626e+05
   3038.0  3.95936e+05
   3039.0  3.96245e+05
   3040.0  3.96555e+05
   3041.0  3.96866e+05
   3042.0  3.97176e+05
   3043.0  3.97487e+05
   3044.0  3.97798e+05
   3045.0  3.98109e+05
   3046.0  3.98420e+05
   3047.0  3.98732e+05
   3048.0  3.99043e+05
   3049.0  3.99355e+05
   3050.0  3.99668e+05
   3051.0  3.99980e+05
   3052.0  4.00292e+05
   3053.0  4.00605e+05
   3054.0  4.00918e+05
   3055.0  4.01231e+05
   3056.0  4.01545e+05
   3057.0  4.01859e+05
   3058.0  4.02172e+05
   3059.0  4.02486e+05
   3060.0  4.02801e+05
   3061.0  4.03115e+05
   3062.0  4.03430e+05
   3063.0  4.03745e+05
   3064.0  4.04060e+05
   3065.0  4.04375e+05
   3066.0  4.04691e+05
   3067.0  4.05006e+05
   3068.0  4.05322e+05
   3069.0  4.05639e+05
   3070.0  4.05955e+05
   3071.0  4.06272e+05
   3072.0  4.06588e+05
   3073.0  4.06905e+05
   3074.0  4.07223e+05
   3075.0  4.07540e+05
   3076.0  4.07858e+05
   3077.0  4.08176e+05
   3078.0  4.08494e+05
   3079.0  4.08812e+05
   3080.0  4.09131e+05
   3081.0  4.09449e+05
   3082.0  4.09768e+05
   3083.0  4.10087e+05
   3084.0  4.10407e+05
   3085.0  4.10726e+05
   3086.0  4.11046e+05
   3087.0  4.11366e+05
   3088.0  4.11686e+05
   3089.0  4.12007e+05
   3090.0  4.12328e+05
   3091.0  4.12648e+05
   3092.0  4.12970e+05
   3093.0  4.13291e+05
   3094.0  4.13612e+05
   3095.0  4.13934e+05
   3096.0  4.14256e+05
   3097.0  4.14578e+05
   3098.0  4.14901e+05
   3099.0  4.15223e+05
   3100.0  4.15546e+05
   3101.0  4.15869e+05
   3102.0  4.16192e+05
   3103.0  4.16516e+05
   3104.0  4.16840e+05
   3105.0  4.17163e+05
   3106.0  4.17488e+05
   3107.0  4.17812e+05
   3108.0  4.18137e+05
   3109.0  4.18461e+05
   3110.0  4.18786e+05
   3111.0  4.19111e+05
   3112.0  4.19437e+05
   3113.0  4.19763e+05
   3114.0  4.20088e+05
   3115.0  4.20415e+05
   3116.0  4.20741e+05
   3117.0  4.21067e+05
   3118.0  4.21394e+05
   3119.0  4.21721e+05
   3120.0  4.22048e+05
   3121.0  4.22376e+05
   3122.0  4.22703e+05
   3123.0  4.23031e+05
   3124.0  4.23359e+05
   3125.0  4.23687e+05
   3126.0  4.24016e+05
   3127.0  4.24345e+05
   3128.0  4.24674e+05
   3129.0  4.25003e+05
   3130.0  4.25332e+05
   3131.0  4.25662e+05
   3132.0  4.25992e+05
   3133.0  4.26322e+05
   3134.0  4.26652e+05
   3135.0  4.26982e+05
   3136.0  4.27313e+05
   3137.0  4.27644e+05
   3138.0  4.27975e+05
   3139.0  4.28306e+05
   3140.0  4.28638e+05
   3141.0  4.28970e+05
   3142.0  4.29302e+05
   3143.0  4.29634e+05
   3144.0  4.29967e+05
   3145.0  4.30299e+05
   3146.0  4.30632e+05
   3147.0  4.30965e+05
   3148.0  4.31299e+05
   3149.0  4.31632e+05
   3150.0  4.31966e+05
   3151.0  4.32300e+05
   3152.0  4.32634e+05
   3153.0  4.32969e+05
   3154.0  4.33304e+05
   3155.0  4.33638e+05
   3156.0  4.33974e+05
   3157.0  4.34309e+05
   3158.0  4.34645e+05
   3159.0  4.34980e+05
   3160.0  4.35316e+05
   3161.0  4.35653e+05
   3162.0  4.35989e+05
   3163.0  4.36326e+05
   3164.0  4.36663e+05
   3165.0  4.37000e+05
   3166.0  4.37337e+05
   3167.0  4.37675e+05
   3168.0  4.38013e+05
   3169.0  4.38351e+05
   3170.0  4.38689e+05
   3171.0  4.39028e+05
   3172.0  4.39366e+05
   3173.0  4.39705e+05
   3174.0  4.40045e+05
   3175.0  4.40384e+05
   3176.0  4.40724e+05
   3177.0  4.41064e+05
   3178.0  4.41404e+05
   3179.0  4.41744e+05
   3180.0  4.42085e+05
   3181.0  4.42425e+05
   3182.0  4.42766e+05
   3183.0  4.43108e+05
   3184.0  4.43449e+05
   3185.0  4.43791e+05
   3186.0  4.44133e+05
   3187.0  4.44475e+05
   3188.0  4.44817e+05
   3189.0  4.45160e+05
   3190.0  4.45502e+05
   3191.0  4.45846e+05
   3192.0  4.46189e+05
   3193.0  4.46532e+05
   3194.0  4.46876e+05
   3195.0  4.47220e+05
   3196.0  4.47564e+05
   3197.0  4.47909e+05
   3198.0  4.48253e+05
   3199.0  4.48598e+05
   3200.0  4.48943e+05
   3201.0  4.49289e+05
   3202.0  4.49634e+05
   3203.0  4.49980e+05
   3204.0  4.50326e+05
   3205.0  4.50672e+05
   3206.0  4.51019e+05
   3207.0  4.51365e+05
   3208.0  4.51712e+05
   3209.0  4.52060e+05
   3210.0  4.52407e+05
   3211.0  4.52755e+05
   3212.0  4.53102e+05
   3213.0  4.53451e+05
   3214.0  4.53799e+05
   3215.0  4.54147e+05
   3216.0  4.54496e+05
   3217.0  4.54845e+05
   3218.0  4.55194e+05
   3219.0  4.55544e+05
   3220.0  4.55894e+05
   3221.0  4.56244e+05
   3222.0  4.56594e+05
   3223.0  4.56944e+05
   3224.0  4.57295e+05
   3225.0  4.57646e+05
   3226.0  4.57997e+05
   3227.0  4.58348e+05
   3228.0  4.58700e+05
   3229.0  4.59052e+05
   3230.0  4.59404e+05
   3231.0  4.59756e+05
   3232.0  4.60108e+05
   3233.0  4.60461e+05
   3234.0  4.60814e+05
   3235.0  4.61167e+05
   3236.0  4.61521e+05
   3237.0  4.61874e+05
   3238.0  4.62228e+05
   3239.0  4.62582e+05
   3240.0  4.62937e+05
   3241.0  4.63291e+05
   3242.0  4.63646e+05
   3243.0  4.64001e+05
   3244.0  4.64357e+05
   3245.0  4.64712e+05
   3246.0  4.65068e+05
   3247.0  4.65424e+05
   3248.0  4.65780e+05
   3249.0  4.66137e+05
   3250.0  4.66493e+05
   3251.0  4.66850e+05
   3252.0  4.67208e+05
   3253.0  4.67565e+05
   3254.0  4.67923e+05
   3255.0  4.68281e+05
   3256.0  4.68639e+05
   3257.0  4.68997e+05
   3258.0  4.69356e+05
   3259.0  4.69715e+05
   3260.0  4.70074e+05
   3261.0  4.70433e+05
   3262.0  4.70793e+05
   3263.0  4.71152e+05
   3264.0  4.71512e+05
   3265.0  4.71873e+05
   3266.0  4.72233e+05
   3267.0  4.72594e+05
   3268.0  4.72955e+05
   3269.0  4.73316e+05
   3270.0  4.73678e+05
   3271.0  4.74039e+05
   3272.0  4.74401e+05
   3273.0  4.74763e+05
   3274.0  4.75126e+05
   3275.0  4.75488e+05
   3276.0  4.75851e+05
   3277.0  4.76214e+05
   3278.0  4.76578e+05
   3279.0  4.76941e+05
   3280.0  4.77305e+05
   3281.0  4.77669e+05
   3282.0  4.78034e+05
   3283.0  4.78398e+05
   3284.0  4.78763e+05
   3285.0  4.79128e+05
   3286.0  4.79493e+05
   3287.0  4.79859e+05
   3288.0  4.80225e+05
   3289.0  4.80591e+05
   3290.0  4.80957e+05
   3291.0  4.81323e+05
   3292.0  4.81690e+05
   3293.0  4.82057e+05
   3294.0  4.82424e+05
   3295.0  4.82792e+05
   3296.0  4.83159e+05
   3297.0  4.83527e+05
   3298.0  4.83896e+05
   3299.0  4.84264e+05
   3300.0  4.84633e+05
   3301.0  4.85002e+05
   3302.0  4.85371e+05
   3303.0  4.85740e+05
   3304.0  4.86110e+05
   3305.0  4.86480e+05
   3306.0  4.86850e+05
   3307.0  4.87220e+05
   3308.0  4.87591e+05
   3309.0  4.87962e+05
   3310.0  4.88333e+05
   3311.0  4.88704e+05
   3312.0  4.89076e+05
   3313.0  4.89447e+05
   3314.0  4.89819e+05
   3315.0  4.90192e+05
   3316.0  4.90564e+05
   3317.0  4.90937e+05
   3318.0  4.91310e+05
   3319.0  4.91683e+05
   3320.0  4.92057e+05
   3321.0  4.92431e+05
   3322.0  4.92805e+05
   3323.0  4.93179e+05
   3324.0  4.93554e+05
   3325.0  4.93928e+05
   3326.0  4.94303e+05
   3327.0  4.94679e+05
   3328.0  4.95054e+05
   3329.0  4.95430e+05
   3330.0  4.95806e+05
   3331.0  4.96182e+05
   3332.0  4.96558e+05
   3333.0  4.96935e+05
   3334.0  4.97312e+05
   3335.0  4.97689e+05
   3336.0  4.98067e+05
   3337.0  4.98444e+05
   3338.0  4.98822e+05
   3339.0  4.99201e+05
   3340.0  4.99579e+05
   3341.0  4.99958e+05
   3342.0  5.00337e+05
   3343.0  5.00716e+05
   3344.0  5.01095e+05
   3345.0  5.01475e+05
   3346.0  5.01855e+05
   3347.0  5.02235e+05
   3348.0  5.02616e+05
   3349.0  5.02996e+05
   3350.0  5.03377e+05
   3351.0  5.03758e+05
   3352.0  5.04140e+05
   3353.0  5.04521e+05
   3354.0  5.04903e+05
   3355.0  5.05286e+05
   3356.0  5.05668e+05
   3357.0  5.06051e+05
   3358.0  5.06434e+05
   3359.0  5.06817e+05
   3360.0  5.07200e+05
   3361.0  5.07584e+05
   3362.0  5.07968e+05
   3363.0  5.08352e+05
   3364.0  5.08736e+05
   3365.0  5.09121e+05
   3366.0  5.09506e+05
   3367.0  5.09891e+05
   3368.0  5.10276e+05
   3369.0  5.10662e+05
   3370.0  5.11048e+05
   3371.0  5.11434e+05
   3372.0  5.11821e+05
   3373.0  5.12207e+05
   3374.0  5.12594e+05
   3375.0  5.12981e+05
   3376.0  5.13369e+05
   3377.0  5.13757e+05
   3378.0  5.14145e+05
   3379.0  5.14533e+05
   3380.0  5.14921e+05
   3381.0  5.15310e+05
   3382.0  5.15699e+05
   3383.0  5.16088e+05
   3384.0  5.16477e+05
   3385.0  5.16867e+05
   3386.0  5.17257e+05
   3387.0  5.17647e+05
   3388.0  5.18038e+05
   3389.0  5.18429e+05
   3390.0  5.18819e+05
   3391.0  5.19211e+05
   3392.0  5.19602e+05
   3393.0  5.19994e+05
   3394.0  5.20386e+05
   3395.0  5.20778e+05
   3396.0  5.21171e+05
   3397.0  5.21563e+05
   3398.0  5.21956e+05
   3399.0  5.22350e+05
   3400.0  5.22743e+05
   3401.0  5.23137e+05
   3402.0  5.23531e+05
   3403.0  5.23925e+05
   3404.0  5.24320e+05
   3405.0  5.24715e+05
   3406.0  5.25110e+05
   3407.0  5.25505e+05
   3408.0  5.25901e+05
   3409.0  5.26296e+05
   3410.0  5.26692e+05
   3411.0  5.27089e+05
   3412.0  5.27485e+05
   3413.0  5.27882e+05
   3414.0  5.28279e+05
   3415.0  5.28677e+05
   3416.0  5.29074e+05
   3417.0  5.29472e+05
   3418.0  5.29870e+05
   3419.0  5.30269e+05
   3420.0  5.30667e+05
   3421.0  5.31066e+05
   3422.0  5.31465e+05
   3423.0  5.31865e+05
   3424.0  5.32264e+05
   3425.0  5.32664e+05
   3426.0  5.33065e+05
   3427.0  5.33465e+05
   3428.0  5.33866e+05
   3429.0  5.34267e+05
   3430.0  5.34668e+05
   3431.0  5.35069e+05
   3432.0  5.35471e+05
   3433.0  5.35873e+05
   3434.0  5.36276e+05
   3435.0  5.36678e+05
   3436.0  5.37081e+05
   3437.0  5.37484e+05
   3438.0  5.37887e+05
   3439.0  5.38291e+05
   3440.0  5.38695e+05
   3441.0  5.39099e+05
   3442.0  5.39503e+05
   3443.0  5.39908e+05
   3444.0  5.40312e+05
   3445.0  5.40718e+05
   3446.0  5.41123e+05
   3447.0  5.41529e+05
   3448.0  5.41935e+05
   3449.0  5.42341e+05
   3450.0  5.42747e+05
   3451.0  5.43154e+05
   3452.0  5.43561e+05
   3453.0  5.43968e+05
   3454.0  5.44376e+05
   3455.0  5.44783e+05
   3456.0  5.45191e+05
   3457.0  5.45600e+05
   3458.0  5.46008e+05
   3459.0  5.46417e+05
   3460.0  5.46826e+05
   3461.0  5.47235e+05
   3462.0  5.47645e+05
   3463.0  5.48055e+05
   3464.0  5.48465e+05
   3465.0  5.48875e+05
   3466.0  5.49286e+05
   3467.0  5.49697e+05
   3468.0  5.50108e+05
   3469.0  5.50519e+05
   3470.0  5.50931e+05
   3471.0  5.51343e+05
   3472.0  5.51755e+05
   3473.0  5.52168e+05
   3474.0  5.52581e+05
   3475.0  5.52994e+05
   3476.0  5.53407e+05
   3477.0  5.53820e+05
   3478.0  5.54234e+05
   3479.0  5.54648e+05
   3480.0  5.55063e+05
   3481.0  5.55477e+05
   3482.0  5.55892e+05
   3483.0  5.56307e+05
   3484.0  5.56723e+05
   3485.0  5.57138e+05
   3486.0  5.57554e+05
   3487.0  5.57971e+05
   3488.0  5.58387e+05
   3489.0  5.58804e+05
   3490.0  5.59221e+05
   3491.0  5.59638e+05
   3492.0  5.60056e+05
   3493.0  5.60473e+05
   3494.0  5.60892e+05
   3495.0  5.61310e+05
   3496.0  5.61729e+05
   3497.0  5.62147e+05
   3498.0  5.62567e+05
   3499.0  5.62986e+05
   3500.0  5.63406e+05
   3501.0  5.63826e+05
   3502.0  5.64246e+05
   3503.0  5.64666e+05
   3504.0  5.65087e+05
   3505.0  5.65508e+05
   3506.0  5.65930e+05
   3507.0  5.66351e+05
   3508.0  5.66773e+05
   3509.0  5.67195e+05
   3510.0  5.67617e+05
   3511.0  5.68040e+05
   3512.0  5.68463e+05
   3513.0  5.68886e+05
   3514.0  5.69310e+05
   3515.0  5.69733e+05
   3516.0  5.70157e+05
   3517.0  5.70582e+05
   3518.0  5.71006e+05
   3519.0  5.71431e+05
   3520.0  5.71856e+05
   3521.0  5.72281e+05
   3522.0  5.72707e+05
   3523.0  5.73133e+05
   3524.0  5.73559e+05
   3525.0  5.73986e+05
   3526.0  5.74412e+05
   3527.0  5.74839e+05
   3528.0  5.75267e+05
   3529.0  5.75694e+05
   3530.0  5.76122e+05
   3531.0  5.76550e+05
   3532.0  5.76978e+05
   3533.0  5.77407e+05
   3534.0  5.77836e+05
   3535.0  5.78265e+05
   3536.0  5.78694e+05
   3537.0  5.79124e+05
   3538.0  5.79554e+05
   3539.0  5.79984e+05
   3540.0  5.80415e+05
   3541.0  5.80846e+05
   3542.0  5.81277e+05
   3543.0  5.81708e+05
   3544.0  5.82140e+05
   3545.0  5.82572e+05
   3546.0  5.83004e+05
   3547.0  5.83436e+05
   3548.0  5.83869e+05
   3549.0  5.84302e+05
   3550.0  5.84735e+05
   3551.0  5.85169e+05
   3552.0  5.85603e+05
   3553.0  5.86037e+05
   3554.0  5.86471e+05
   3555.0  5.86906e+05
   3556.0  5.87341e+05
   3557.0  5.87776e+05
   3558.0  5.88212e+05
   3559.0  5.88647e+05
   3560.0  5.89083e+05
   3561.0  5.89520e+05
   3562.0  5.89956e+05
   3563.0  5.90393e+05
   3564.0  5.90830e+05
   3565.0  5.91268e+05
   3566.0  5.91705e+05
   3567.0  5.92143e+05
   3568.0  5.92582e+05
   3569.0  5.93020e+05
   3570.0  5.93459e+05
   3571.0  5.93898e+05
   3572.0  5.94337e+05
   3573.0  5.94777e+05
   3574.0  5.95217e+05
   3575.0  5.95657e+05
   3576.0  5.96098e+05
   3577.0  5.96538e+05
   3578.0  5.96979e+05
   3579.0  5.97421e+05
   3580.0  5.97862e+05
   3581.0  5.98304e+05
   3582.0  5.98746e+05
   3583.0  5.99189e+05
   3584.0  5.99632e+05
   3585.0  6.00075e+05
   3586.0  6.00518e+05
   3587.0  6.00961e+05
   3588.0  6.01405e+05
   3589.0  6.01849e+05
   3590.0  6.02294e+05
   3591.0  6.02738e+05
   3592.0  6.03183e+05
   3593.0  6.03629e+05
   3594.0  6.04074e+05
   3595.0  6.04520e+05
   3596.0  6.04966e+05
   3597.0  6.05412e+05
   3598.0  6.05859e+05
   3599.0  6.06306e+05
   3600.0  6.06753e+05
   3601.0  6.07201e+05
   3602.0  6.07648e+05
   3603.0  6.08096e+05
   3604.0  6.08545e+05
   3605.0  6.08993e+05
   3606.0  6.09442e+05
   3607.0  6.09891e+05
   3608.0  6.10341e+05
   3609.0  6.10791e+05
   3610.0  6.11241e+05
   3611.0  6.11691e+05
   3612.0  6.12142e+05
   3613.0  6.12592e+05
   3614.0  6.13044e+05
   3615.0  6.13495e+05
   3616.0  6.13947e+05
   3617.0  6.14399e+05
   3618.0  6.14851e+05
   3619.0  6.15304e+05
   3620.0  6.15757e+05
   3621.0  6.16210e+05
   3622.0  6.16663e+05
   3623.0  6.17117e+05
   3624.0  6.17571e+05
   3625.0  6.18025e+05
   3626.0  6.18480e+05
   3627.0  6.18935e+05
   3628.0  6.19390e+05
   3629.0  6.19845e+05
   3630.0  6.20301e+05
   3631.0  6.20757e+05
   3632.0  6.21213e+05
   3633.0  6.21670e+05
   3634.0  6.22127e+05
   3635.0  6.22584e+05
   3636.0  6.23041e+05
   3637.0  6.23499e+05
   3638.0  6.23957e+05
   3639.0  6.24415e+05
   3640.0  6.24874e+05
   3641.0  6.25333e+05
   3642.0  6.25792e+05
   3643.0  6.26251e+05
   3644.0  6.26711e+05
   3645.0  6.27171e+05
   3646.0  6.27631e+05
   3647.0  6.28092e+05
   3648.0  6.28553e+05
   3649.0  6.29014e+05
   3650.0  6.29476e+05
   3651.0  6.29937e+05
   3652.0  6.30399e+05
   3653.0  6.30862e+05
   3654.0  6.31324e+05
   3655.0  6.31787e+05
   3656.0  6.32250e+05
   3657.0  6.32714e+05
   3658.0  6.33178e+05
   3659.0  6.33642e+05
   3660.0  6.34106e+05
   3661.0  6.34571e+05
   3662.0  6.35036e+05
   3663.0  6.35501e+05
   3664.0  6.35966e+05
   3665.0  6.36432e+05
   3666.0  6.36898e+05
   3667.0  6.37365e+05
   3668.0  6.37831e+05
   3669.0  6.38298e+05
   3670.0  6.38766e+05
   3671.0  6.39233e+05
   3672.0  6.39701e+05
   3673.0  6.40169e+05
   3674.0  6.40638e+05
   3675.0  6.41106e+05
   3676.0  6.41575e+05
   3677.0  6.42045e+05
   3678.0  6.42514e+05
   3679.0  6.42984e+05
   3680.0  6.43454e+05
   3681.0  6.43925e+05
   3682.0  6.44396e+05
   3683.0  6.44867e+05
   3684.0  6.45338e+05
   3685.0  6.45810e+05
   3686.0  6.46282e+05
   3687.0  6.46754e+05
   3688.0  6.47226e+05
   3689.0  6.47699e+05
   3690.0  6.48172e+05
   3691.0  6.48646e+05
   3692.0  6.49120e+05
   3693.0  6.49594e+05
   3694.0  6.50068e+05
   3695.0  6.50542e+05
   3696.0  6.51017e+05
   3697.0  6.51493e+05
   3698.0  6.51968e+05
   3699.0  6.52444e+05
   3700.0  6.52920e+05
   3701.0  6.53396e+05
   3702.0  6.53873e+05
   3703.0  6.54350e+05
   3704.0  6.54827e+05
   3705.0  6.55305e+05
   3706.0  6.55782e+05
   3707.0  6.56261e+05
   3708.0  6.56739e+05
   3709.0  6.57218e+05
   3710.0  6.57697e+05
   3711.0  6.58176e+05
   3712.0  6.58656e+05
   3713.0  6.59136e+05
   3714.0  6.59616e+05
   3715.0  6.60096e+05
   3716.0  6.60577e+05
   3717.0  6.61058e+05
   3718.0  6.61540e+05
   3719.0  6.62021e+05
   3720.0  6.62503e+05
   3721.0  6.62986e+05
   3722.0  6.63468e+05
   3723.0  6.63951e+05
   3724.0  6.64434e+05
   3725.0  6.64918e+05
   3726.0  6.65402e+05
   3727.0  6.65886e+05
   3728.0  6.66370e+05
   3729.0  6.66855e+05
   3730.0  6.67340e+05
   3731.0  6.67825e+05
   3732.0  6.68311e+05
   3733.0  6.68797e+05
   3734.0  6.69283e+05
   3735.0  6.69769e+05
   3736.0  6.70256e+05
   3737.0  6.70743e+05
   3738.0  6.71231e+05
   3739.0  6.71718e+05
   3740.0  6.72206e+05
   3741.0  6.72695e+05
   3742.0  6.73183e+05
   3743.0  6.73672e+05
   3744.0  6.74161e+05
   3745.0  6.74651e+05
   3746.0  6.75141e+05
   3747.0  6.75631e+05
   3748.0  6.76121e+05
   3749.0  6.76612e+05
   3750.0  6.77103e+05
   3751.0  6.77594e+05
   3752.0  6.78086e+05
   3753.0  6.78578e+05
   3754.0  6.79070e+05
   3755.0  6.79563e+05
   3756.0  6.80055e+05
   3757.0  6.80549e+05
   3758.0  6.81042e+05
   3759.0  6.81536e+05
   3760.0  6.82030e+05
   3761.0  6.82524e+05
   3762.0  6.83019e+05
   3763.0  6.83514e+05
   3764.0  6.84009e+05
   3765.0  6.84505e+05
   3766.0  6.85000e+05
   3767.0  6.85497e+05
   3768.0  6.85993e+05
   3769.0  6.86490e+05
   3770.0  6.86987e+05
   3771.0  6.87484e+05
   3772.0  6.87982e+05
   3773.0  6.88480e+05
   3774.0  6.88978e+05
   3775.0  6.89477e+05
   3776.0  6.89976e+05
   3777.0  6.90475e+05
   3778.0  6.90975e+05
   3779.0  6.91475e+05
   3780.0  6.91975e+05
   3781.0  6.92475e+05
   3782.0  6.92976e+05
   3783.0  6.93477e+05
   3784.0  6.93978e+05
   3785.0  6.94480e+05
   3786.0  6.94982e+05
   3787.0  6.95484e+05
   3788.0  6.95987e+05
   3789.0  6.96490e+05
   3790.0  6.96993e+05
   3791.0  6.97497e+05
   3792.0  6.98000e+05
   3793.0  6.98505e+05
   3794.0  6.99009e+05
   3795.0  6.99514e+05
   3796.0  7.00019e+05
   3797.0  7.00524e+05
   3798.0  7.01030e+05
   3799.0  7.01536e+05
   3800.0  7.02042e+05
   3801.0  7.02549e+05
   3802.0  7.03056e+05
   3803.0  7.03563e+05
   3804.0  7.04071e+05
   3805.0  7.04578e+05
   3806.0  7.05087e+05
   3807.0  7.05595e+05
   3808.0  7.06104e+05
   3809.0  7.06613e+05
   3810.0  7.07122e+05
   3811.0  7.07632e+05
   3812.0  7.08142e+05
   3813.0  7.08652e+05
   3814.0  7.09163e+05
   3815.0  7.09674e+05
   3816.0  7.10185e+05
   3817.0  7.10697e+05
   3818.0  7.11209e+05
   3819.0  7.11721e+05
   3820.0  7.12234e+05
   3821.0  7.12746e+05
   3822.0  7.13259e+05
   3823.0  7.13773e+05
   3824.0  7.14287e+05
   3825.0  7.14801e+05
   3826.0  7.15315e+05
   3827.0  7.15830e+05
   3828.0  7.16345e+05
   3829.0  7.16860e+05
   3830.0  7.17376e+05
   3831.0  7.17892e+05
   3832.0  7.18408e+05
   3833.0  7.18925e+05
   3834.0  7.19442e+05
   3835.0  7.19959e+05
   3836.0  7.20476e+05
   3837.0  7.20994e+05
   3838.0  7.21512e+05
   3839.0  7.22031e+05
   3840.0  7.22550e+05
   3841.0  7.23069e+05
   3842.0  7.23588e+05
   3843.0  7.24108e+05
   3844.0  7.24628e+05
   3845.0  7.25148e+05
   3846.0  7.25669e+05
   3847.0  7.26190e+05
   3848.0  7.26711e+05
   3849.0  7.27233e+05
   3850.0  7.27755e+05
   3851.0  7.28277e+05
   3852.0  7.28800e+05
   3853.0  7.29323e+05
   3854.0  7.29846e+05
   3855.0  7.30369e+05
   3856.0  7.30893e+05
   3857.0  7.31417e+05
   3858.0  7.31942e+05
   3859.0  7.32467e+05
   3860.0  7.32992e+05
   3861.0  7.33517e+05
   3862.0  7.34043e+05
   3863.0  7.34569e+05
   3864.0  7.35095e+05
   3865.0  7.35622e+05
   3866.0  7.36149e+05
   3867.0  7.36676e+05
   3868.0  7.37204e+05
   3869.0  7.37732e+05
   3870.0  7.38260e+05
   3871.0  7.38789e+05
   3872.0  7.39318e+05
   3873.0  7.39847e+05
   3874.0  7.40377e+05
   3875.0  7.40906e+05
   3876.0  7.41437e+05
   3877.0  7.41967e+05
   3878.0  7.42498e+05
   3879.0  7.43029e+05
   3880.0  7.43561e+05
   3881.0  7.44093e+05
   3882.0  7.44625e+05
   3883.0  7.45157e+05
   3884.0  7.45690e+05
   3885.0  7.46223e+05
   3886.0  7.46756e+05
   3887.0  7.47290e+05
   3888.0  7.47824e+05
   3889.0  7.48359e+05
   3890.0  7.48893e+05
   3891.0  7.49428e+05
   3892.0  7.49964e+05
   3893.0  7.50499e+05
   3894.0  7.51035e+05
   3895.0  7.51572e+05
   3896.0  7.52108e+05
   3897.0  7.52645e+05
   3898.0  7.53182e+05
   3899.0  7.53720e+05
   3900.0  7.54258e+05
   3901.0  7.54796e+05
   3902.0  7.55335e+05
   3903.0  7.55874e+05
   3904.0  7.56413e+05
   3905.0  7.56952e+05
   3906.0  7.57492e+05
   3907.0  7.58033e+05
   3908.0  7.58573e+05
   3909.0  7.59114e+05
   3910.0  7.59655e+05
   3911.0  7.60197e+05
   3912.0  7.60738e+05
   3913.0  7.61280e+05
   3914.0  7.61823e+05
   3915.0  7.62366e+05
   3916.0  7.62909e+05
   3917.0  7.63452e+05
   3918.0  7.63996e+05
   3919.0  7.64540e+05
   3920.0  7.65085e+05
   3921.0  7.65629e+05
   3922.0  7.66174e+05
   3923.0  7.66720e+05
   3924.0  7.67265e+05
   3925.0  7.67811e+05
   3926.0  7.68358e+05
   3927.0  7.68905e+05
   3928.0  7.69452e+05
   3929.0  7.69999e+05
   3930.0  7.70547e+05
   3931.0  7.71095e+05
   3932.0  7.71643e+05
   3933.0  7.72192e+05
   3934.0  7.72741e+05
   3935.0  7.73290e+05
   3936.0  7.73840e+05
   3937.0  7.74390e+05
   3938.0  7.74940e+05
   3939.0  7.75491e+05
   3940.0  7.76041e+05
   3941.0  7.76593e+05
   3942.0  7.77144e+05
   3943.0  7.77696e+05
   3944.0  7.78249e+05
   3945.0  7.78801e+05
   3946.0  7.79354e+05
   3947.0  7.79907e+05
   3948.0  7.80461e+05
   3949.0  7.81015e+05
   3950.0  7.81569e+05
   3951.0  7.82124e+05
   3952.0  7.82679e+05
   3953.0  7.83234e+05
   3954.0  7.83790e+05
   3955.0  7.84345e+05
   3956.0  7.84902e+05
   3957.0  7.85458e+05
   3958.0  7.86015e+05
   3959.0  7.86572e+05
   3960.0  7.87130e+05
   3961.0  7.87688e+05
   3962.0  7.88246e+05
   3963.0  7.88805e+05
   3964.0  7.89364e+05
   3965.0  7.89923e+05
   3966.0  7.90482e+05
   3967.0  7.91042e+05
   3968.0  7.91602e+05
   3969.0  7.92163e+05
   3970.0  7.92724e+05
   3971.0  7.93285e+05
   3972.0  7.93847e+05
   3973.0  7.94408e+05
   3974.0  7.94971e+05
   3975.0  7.95533e+05
   3976.0  7.96096e+05
   3977.0  7.96659e+05
   3978.0  7.97223e+05
   3979.0  7.97787e+05
   3980.0  7.98351e+05
   3981.0  7.98916e+05
   3982.0  7.99480e+05
   3983.0  8.00046e+05
   3984.0  8.00611e+05
   3985.0  8.01177e+05
   3986.0  8.01743e+05
   3987.0  8.02310e+05
   3988.0  8.02877e+05
   3989.0  8.03444e+05
   3990.0  8.04012e+05
   3991.0  8.04580e+05
   3992.0  8.05148e+05
   3993.0  8.05716e+05
   3994.0  8.06285e+05
   3995.0  8.06855e+05
   3996.0  8.07424e+05
   3997.0  8.07994e+05
   3998.0  8.08564e+05
   3999.0  8.09135e+05
   4000.0  8.09706e+05
   4001.0  8.10277e+05
   4002.0  8.10849e+05
   4003.0  8.11421e+05
   4004.0  8.11993e+05
   4005.0  8.12566e+05
   4006.0  8.13139e+05
   4007.0  8.13712e+05
   4008.0  8.14286e+05
   4009.0  8.14860e+05
   4010.0  8.15434e+05
   4011.0  8.16009e+05
   4012.0  8.16583e+05
   4013.0  8.17159e+05
   4014.0  8.17735e+05
   4015.0  8.18311e+05
   4016.0  8.18887e+05
   4017.0  8.19464e+05
   4018.0  8.20041e+05
   4019.0  8.20618e+05
   4020.0  8.21196e+05
   4021.0  8.21774e+05
   4022.0  8.22352e+05
   4023.0  8.22931e+05
   4024.0  8.23510e+05
   4025.0  8.24089e+05
   4026.0  8.24669e+05
   4027.0  8.25249e+05
   4028.0  8.25830e+05
   4029.0  8.26410e+05
   4030.0  8.26991e+05
   4031.0  8.27573e+05
   4032.0  8.28155e+05
   4033.0  8.28737e+05
   4034.0  8.29319e+05
   4035.0  8.29902e+05
   4036.0  8.30485e+05
   4037.0  8.31069e+05
   4038.0  8.31653e+05
   4039.0  8.32237e+05
   4040.0  8.32821e+05
   4041.0  8.33406e+05
   4042.0  8.33992e+05
   4043.0  8.34577e+05
   4044.0  8.35163e+05
   4045.0  8.35749e+05
   4046.0  8.36336e+05
   4047.0  8.36923e+05
   4048.0  8.37510e+05
   4049.0  8.38098e+05
   4050.0  8.38686e+05
   4051.0  8.39274e+05
   4052.0  8.39863e+05
   4053.0  8.40452e+05
   4054.0  8.41041e+05
   4055.0  8.41631e+05
   4056.0  8.42221e+05
   4057.0  8.42811e+05
   4058.0  8.43402e+05
   4059.0  8.43993e+05
   4060.0  8.44584e+05
   4061.0  8.45176e+05
   4062.0  8.45768e+05
   4063.0  8.46361e+05
   4064.0  8.46953e+05
   4065.0  8.47547e+05
   4066.0  8.48140e+05
   4067.0  8.48734e+05
   4068.0  8.49328e+05
   4069.0  8.49923e+05
   4070.0  8.50518e+05
   4071.0  8.51113e+05
   4072.0  8.51708e+05
   4073.0  8.52304e+05
   4074.0  8.52901e+05
   4075.0  8.53497e+05
   4076.0  8.54094e+05
   4077.0  8.54691e+05
   4078.0  8.55289e+05
   4079.0  8.55887e+05
   4080.0  8.56486e+05
   4081.0  8.57084e+05
   4082.0  8.57683e+05
   4083.0  8.58283e+05
   4084.0  8.58882e+05
   4085.0  8.59483e+05
   4086.0  8.60083e+05
   4087.0  8.60684e+05
   4088.0  8.61285e+05
   4089.0  8.61886e+05
   4090.0  8.62488e+05
   4091.0  8.63091e+05
   4092.0  8.63693e+05
   4093.0  8.64296e+05
   4094.0  8.64899e+05
   4095.0  8.65503e+05
   4096.0  8.66107e+05
   4097.0  8.66711e+05
   4098.0  8.67316e+05
   4099.0  8.67921e+05
   4100.0  8.68526e+05
   4101.0  8.69132e+05
   4102.0  8.69738e+05
   4103.0  8.70344e+05
   4104.0  8.70951e+05
   4105.0  8.71558e+05
   4106.0  8.72166e+05
   4107.0  8.72773e+05
   4108.0  8.73382e+05
   4109.0  8.73990e+05
   4110.0  8.74599e+05
   4111.0  8.75208e+05
   4112.0  8.75818e+05
   4113.0  8.76428e+05
   4114.0  8.77038e+05
   4115.0  8.77649e+05
   4116.0  8.78260e+05
   4117.0  8.78871e+05
   4118.0  8.79483e+05
   4119.0  8.80095e+05
   4120.0  8.80707e+05
   4121.0  8.81320e+05
   4122.0  8.81933e+05
   4123.0  8.82547e+05
   4124.0  8.83160e+05
   4125.0  8.83775e+05
   4126.0  8.84389e+05
   4127.0  8.85004e+05
   4128.0  8.85619e+05
   4129.0  8.86235e+05
   4130.0  8.86851e+05
   4131.0  8.87467e+05
   4132.0  8.88084e+05
   4133.0  8.88701e+05
   4134.0  8.89318e+05
   4135.0  8.89936e+05
   4136.0  8.90554e+05
   4137.0  8.91172e+05
   4138.0  8.91791e+05
   4139.0  8.92410e+05
   4140.0  8.93030e+05
   4141.0  8.93650e+05
   4142.0  8.94270e+05
   4143.0  8.94891e+05
   4144.0  8.95512e+05
   4145.0  8.96133e+05
   4146.0  8.96755e+05
   4147.0  8.97377e+05
   4148.0  8.97999e+05
   4149.0  8.98622e+05
   4150.0  8.99245e+05
   4151.0  8.99868e+05
   4152.0  9.00492e+05
   4153.0  9.01116e+05
   4154.0  9.01741e+05
   4155.0  9.02366e+05
   4156.0  9.02991e+05
   4157.0  9.03617e+05
   4158.0  9.04243e+05
   4159.0  9.04869e+05
   4160.0  9.05496e+05
   4161.0  9.06123e+05
   4162.0  9.06750e+05
   4163.0  9.07378e+05
   4164.0  9.08006e+05
   4165.0  9.08634e+05
   4166.0  9.09263e+05
   4167.0  9.09892e+05
   4168.0  9.10522e+05
   4169.0  9.11152e+05
   4170.0  9.11782e+05
   4171.0  9.12413e+05
   4172.0  9.13044e+05
   4173.0  9.13675e+05
   4174.0  9.14307e+05
   4175.0  9.14939e+05
   4176.0  9.15572e+05
   4177.0  9.16204e+05
   4178.0  9.16838e+05
   4179.0  9.17471e+05
   4180.0  9.18105e+05
   4181.0  9.18739e+05
   4182.0  9.19374e+05
   4183.0  9.20009e+05
   4184.0  9.20644e+05
   4185.0  9.21280e+05
   4186.0  9.21916e+05
   4187.0  9.22553e+05
   4188.0  9.23189e+05
   4189.0  9.23827e+05
   4190.0  9.24464e+05
   4191.0  9.25102e+05
   4192.0  9.25740e+05
   4193.0  9.26379e+05
   4194.0  9.27018e+05
   4195.0  9.27657e+05
   4196.0  9.28297e+05
   4197.0  9.28937e+05
   4198.0  9.29578e+05
   4199.0  9.30218e+05
   4200.0  9.30860e+05
   4201.0  9.31501e+05
   4202.0  9.32143e+05
   4203.0  9.32785e+05
   4204.0  9.33428e+05
   4205.0  9.34071e+05
   4206.0  9.34714e+05
   4207.0  9.35358e+05
   4208.0  9.36002e+05
   4209.0  9.36647e+05
   4210.0  9.37292e+05
   4211.0  9.37937e+05
   4212.0  9.38583e+05
   4213.0  9.39228e+05
   4214.0  9.39875e+05
   4215.0  9.40521e+05
   4216.0  9.41169e+05
   4217.0  9.41816e+05
   4218.0  9.42464e+05
   4219.0  9.43112e+05
   4220.0  9.43760e+05
   4221.0  9.44409e+05
   4222.0  9.45059e+05
   4223.0  9.45708e+05
   4224.0  9.46358e+05
   4225.0  9.47009e+05
   4226.0  9.47659e+05
   4227.0  9.48310e+05
   4228.0  9.48962e+05
   4229.0  9.49614e+05
   4230.0  9.50266e+05
   4231.0  9.50919e+05
   4232.0  9.51572e+05
   4233.0  9.52225e+05
   4234.0  9.52879e+05
   4235.0  9.53533e+05
   4236.0  9.54187e+05
   4237.0  9.54842e+05
   4238.0  9.55497e+05
   4239.0  9.56153e+05
   4240.0  9.56809e+05
   4241.0  9.57465e+05
   4242.0  9.58122e+05
   4243.0  9.58779e+05
   4244.0  9.59436e+05
   4245.0  9.60094e+05
   4246.0  9.60752e+05
   4247.0  9.61410e+05
   4248.0  9.62069e+05
   4249.0  9.62729e+05
   4250.0  9.63388e+05
   4251.0  9.64048e+05
   4252.0  9.64709e+05
   4253.0  9.65369e+05
   4254.0  9.66031e+05
   4255.0  9.66692e+05
   4256.0  9.67354e+05
   4257.0  9.68016e+05
   4258.0  9.68679e+05
   4259.0  9.69342e+05
   4260.0  9.70005e+05
   4261.0  9.70669e+05
   4262.0  9.71333e+05
   4263.0  9.71998e+05
   4264.0  9.72662e+05
   4265.0  9.73328e+05
   4266.0  9.73993e+05
   4267.0  9.74659e+05
   4268.0  9.75326e+05
   4269.0  9.75992e+05
   4270.0  9.76660e+05
   4271.0  9.77327e+05
   4272.0  9.77995e+05
   4273.0  9.78663e+05
   4274.0  9.79332e+05
   4275.0  9.80001e+05
   4276.0  9.80670e+05
   4277.0  9.81340e+05
   4278.0  9.82010e+05
   4279.0  9.82681e+05
   4280.0  9.83351e+05
   4281.0  9.84023e+05
   4282.0  9.84694e+05
   4283.0  9.85366e+05
   4284.0  9.86039e+05
   4285.0  9.86712e+05
   4286.0  9.87385e+05
   4287.0  9.88058e+05
   4288.0  9.88732e+05
   4289.0  9.89406e+05
   4290.0  9.90081e+05
   4291.0  9.90756e+05
   4292.0  9.91432e+05
   4293.0  9.92107e+05
   4294.0  9.92784e+05
   4295.0  9.93460e+05
   4296.0  9.94137e+05
   4297.0  9.94814e+05
   4298.0  9.95492e+05
   4299.0  9.96170e+05
   4300.0  9.96849e+05
   4301.0  9.97527e+05
   4302.0  9.98207e+05
   4303.0  9.98886e+05
   4304.0  9.99566e+05
   4305.0  1.00025e+06
   4306.0  1.00093e+06
   4307.0  1.00161e+06
   4308.0  1.00229e+06
   4309.0  1.00297e+06
   4310.0  1.00365e+06
   4311.0  1.00434e+06
   4312.0  1.00502e+06
   4313.0  1.00570e+06
   4314.0  1.00639e+06
   4315.0  1.00707e+06
   4316.0  1.00776e+06
   4317.0  1.00844e+06
   4318.0  1.00913e+06
   4319.0  1.00981e+06
   4320.0  1.01050e+06
   4321.0  1.01118e+06
   4322.0  1.01187e+06
   4323.0  1.01256e+06
   4324.0  1.01325e+06
   4325.0  1.01393e+06
   4326.0  1.01462e+06
   4327.0  1.01531e+06
   4328.0  1.01600e+06
   4329.0  1.01669e+06
   4330.0  1.01738e+06
   4331.0  1.01807e+06
   4332.0  1.01876e+06
   4333.0  1.01945e+06
   4334.0  1.02014e+06
   4335.0  1.02083e+06
   4336.0  1.02153e+06
   4337.0  1.02222e+06
   4338.0  1.02291e+06
   4339.0  1.02361e+06
   4340.0  1.02430e+06
   4341.0  1.02499e+06
   4342.0  1.02569e+06
   4343.0  1.02638e+06
   4344.0  1.02708e+06
   4345.0  1.02777e+06
   4346.0  1.02847e+06
   4347.0  1.02917e+06
   4348.0  1.02986e+06
   4349.0  1.03056e+06
   4350.0  1.03126e+06
   4351.0  1.03196e+06
   4352.0  1.03265e+06
   4353.0  1.03335e+06
   4354.0  1.03405e+06
   4355.0  1.03475e+06
   4356.0  1.03545e+06
   4357.0  1.03615e+06
   4358.0  1.03685e+06
   4359.0  1.03755e+06
   4360.0  1.03826e+06
   4361.0  1.03896e+06
   4362.0  1.03966e+06
   4363.0  1.04036e+06
   4364.0  1.04107e+06
   4365.0  1.04177e+06
   4366.0  1.04247e+06
   4367.0  1.04318e+06
   4368.0  1.04388e+06
   4369.0  1.04459e+06
   4370.0  1.04529e+06
   4371.0  1.04600e+06
   4372.0  1.04670e+06
   4373.0  1.04741e+06
   4374.0  1.04812e+06
   4375.0  1.04882e+06
   4376.0  1.04953e+06
   4377.0  1.05024e+06
   4378.0  1.05095e+06
   4379.0  1.05166e+06
   4380.0  1.05237e+06
   4381.0  1.05308e+06
   4382.0  1.05379e+06
   4383.0  1.05450e+06
   4384.0  1.05521e+06
   4385.0  1.05592e+06
   4386.0  1.05663e+06
   4387.0  1.05734e+06
   4388.0  1.05806e+06
   4389.0  1.05877e+06
   4390.0  1.05948e+06
   4391.0  1.06020e+06
   4392.0  1.06091e+06
   4393.0  1.06162e+06
   4394.0  1.06234e+06
   4395.0  1.06305e+06
   4396.0  1.06377e+06
   4397.0  1.06449e+06
   4398.0  1.06520e+06
   4399.0  1.06592e+06
   4400.0  1.06664e+06
   4401.0  1.06735e+06
   4402.0  1.06807e+06
   4403.0  1.06879e+06
   4404.0  1.06951e+06
   4405.0  1.07023e+06
   4406.0  1.07095e+06
   4407.0  1.07167e+06
   4408.0  1.07239e+06
   4409.0  1.07311e+06
   4410.0  1.07383e+06
   4411.0  1.07455e+06
   4412.0  1.07527e+06
   4413.0  1.07599e+06
   4414.0  1.07672e+06
   4415.0  1.07744e+06
   4416.0  1.07816e+06
   4417.0  1.07889e+06
   4418.0  1.07961e+06
   4419.0  1.08034e+06
   4420.0  1.08106e+06
   4421.0  1.08179e+06
   4422.0  1.08251e+06
   4423.0  1.08324e+06
   4424.0  1.08397e+06
   4425.0  1.08469e+06
   4426.0  1.08542e+06
   4427.0  1.08615e+06
   4428.0  1.08688e+06
   4429.0  1.08760e+06
   4430.0  1.08833e+06
   4431.0  1.08906e+06
   4432.0  1.08979e+06
   4433.0  1.09052e+06
   4434.0  1.09125e+06
   4435.0  1.09198e+06
   4436.0  1.09272e+06
   4437.0  1.09345e+06
   4438.0  1.09418e+06
   4439.0  1.09491e+06
   4440.0  1.09565e+06
   4441.0  1.09638e+06
   4442.0  1.09711e+06
   4443.0  1.09785e+06
   4444.0  1.09858e+06
   4445.0  1.09932e+06
   4446.0  1.10005e+06
   4447.0  1.10079e+06
   4448.0  1.10152e+06
   4449.0  1.10226e+06
   4450.0  1.10300e+06
   4451.0  1.10374e+06
   4452.0  1.10447e+06
   4453.0  1.10521e+06
   4454.0  1.10595e+06
   4455.0  1.10669e+06
   4456.0  1.10743e+06
   4457.0  1.10817e+06
   4458.0  1.10891e+06
   4459.0  1.10965e+06
   4460.0  1.11039e+06
   4461.0  1.11113e+06
   4462.0  1.11187e+06
   4463.0  1.11262e+06
   4464.0  1.11336e+06
   4465.0  1.11410e+06
   4466.0  1.11484e+06
   4467.0  1.11559e+06
   4468.0  1.11633e+06
   4469.0  1.11708e+06
   4470.0  1.11782e+06
   4471.0  1.11857e+06
   4472.0  1.11931e+06
   4473.0  1.12006e+06
   4474.0  1.12081e+06
   4475.0  1.12155e+06
   4476.0  1.12230e+06
   4477.0  1.12305e+06
   4478.0  1.12380e+06
   4479.0  1.12455e+06
   4480.0  1.12530e+06
   4481.0  1.12605e+06
   4482.0  1.12680e+06
   4483.0  1.12755e+06
   4484.0  1.12830e+06
   4485.0  1.12905e+06
   4486.0  1.12980e+06
   4487.0  1.13055e+06
   4488.0  1.13130e+06
   4489.0  1.13206e+06
   4490.0  1.13281e+06
   4491.0  1.13356e+06
   4492.0  1.13432e+06
   4493.0  1.13507e+06
   4494.0  1.13583e+06
   4495.0  1.13658e+06
   4496.0  1.13734e+06
   4497.0  1.13809e+06
   4498.0  1.13885e+06
   4499.0  1.13961e+06
   4500.0  1.14036e+06
   4501.0  1.14112e+06
   4502.0  1.14188e+06
   4503.0  1.14264e+06
   4504.0  1.14340e+06
   4505.0  1.14416e+06
   4506.0  1.14492e+06
   4507.0  1.14568e+06
   4508.0  1.14644e+06
   4509.0  1.14720e+06
   4510.0  1.14796e+06
   4511.0  1.14872e+06
   4512.0  1.14948e+06
   4513.0  1.15025e+06
   4514.0  1.15101e+06
   4515.0  1.15177e+06
   4516.0  1.15254e+06
   4517.0  1.15330e+06
   4518.0  1.15406e+06
   4519.0  1.15483e+06
   4520.0  1.15560e+06
   4521.0  1.15636e+06
   4522.0  1.15713e+06
   4523.0  1.15789e+06
   4524.0  1.15866e+06
   4525.0  1.15943e+06
   4526.0  1.16020e+06
   4527.0  1.16096e+06
   4528.0  1.16173e+06
   4529.0  1.16250e+06
   4530.0  1.16327e+06
   4531.0  1.16404e+06
   4532.0  1.16481e+06
   4533.0  1.16558e+06
   4534.0  1.16635e+06
   4535.0  1.16713e+06
   4536.0  1.16790e+06
   4537.0  1.16867e+06
   4538.0  1.16944e+06
   4539.0  1.17022e+06
   4540.0  1.17099e+06
   4541.0  1.17177e+06
   4542.0  1.17254e+06
   4543.0  1.17331e+06
   4544.0  1.17409e+06
   4545.0  1.17487e+06
   4546.0  1.17564e+06
   4547.0  1.17642e+06
   4548.0  1.17720e+06
   4549.0  1.17797e+06
   4550.0  1.17875e+06
   4551.0  1.17953e+06
   4552.0  1.18031e+06
   4553.0  1.18109e+06
   4554.0  1.18187e+06
   4555.0  1.18265e+06
   4556.0  1.18343e+06
   4557.0  1.18421e+06
   4558.0  1.18499e+06
   4559.0  1.18577e+06
   4560.0  1.18655e+06
   4561.0  1.18733e+06
   4562.0  1.18812e+06
   4563.0  1.18890e+06
   4564.0  1.18968e+06
   4565.0  1.19047e+06
   4566.0  1.19125e+06
   4567.0  1.19204e+06
   4568.0  1.19282e+06
   4569.0  1.19361e+06
   4570.0  1.19440e+06
   4571.0  1.19518e+06
   4572.0  1.19597e+06
   4573.0  1.19676e+06
   4574.0  1.19754e+06
   4575.0  1.19833e+06
   4576.0  1.19912e+06
   4577.0  1.19991e+06
   4578.0  1.20070e+06
   4579.0  1.20149e+06
   4580.0  1.20228e+06
   4581.0  1.20307e+06
   4582.0  1.20386e+06
   4583.0  1.20465e+06
   4584.0  1.20545e+06
   4585.0  1.20624e+06
   4586.0  1.20703e+06
   4587.0  1.20783e+06
   4588.0  1.20862e+06
   4589.0  1.20941e+06
   4590.0  1.21021e+06
   4591.0  1.21100e+06
   4592.0  1.21180e+06
   4593.0  1.21259e+06
   4594.0  1.21339e+06
   4595.0  1.21419e+06
   4596.0  1.21498e+06
   4597.0  1.21578e+06
   4598.0  1.21658e+06
   4599.0  1.21738e+06
   4600.0  1.21818e+06
   4601.0  1.21898e+06
   4602.0  1.21978e+06
   4603.0  1.22058e+06
   4604.0  1.22138e+06
   4605.0  1.22218e+06
   4606.0  1.22298e+06
   4607.0  1.22378e+06
   4608.0  1.22458e+06
   4609.0  1.22539e+06
   4610.0  1.22619e+06
   4611.0  1.22699e+06
   4612.0  1.22780e+06
   4613.0  1.22860e+06
   4614.0  1.22941e+06
   4615.0  1.23021e+06
   4616.0  1.23102e+06
   4617.0  1.23182e+06
   4618.0  1.23263e+06
   4619.0  1.23344e+06
   4620.0  1.23424e+06
   4621.0  1.23505e+06
   4622.0  1.23586e+06
   4623.0  1.23667e+06
   4624.0  1.23748e+06
   4625.0  1.23829e+06
   4626.0  1.23910e+06
   4627.0  1.23991e+06
   4628.0  1.24072e+06
   4629.0  1.24153e+06
   4630.0  1.24234e+06
   4631.0  1.24315e+06
   4632.0  1.24396e+06
   4633.0  1.24478e+06
   4634.0  1.24559e+06
   4635.0  1.24640e+06
   4636.0  1.24722e+06
   4637.0  1.24803e+06
   4638.0  1.24885e+06
   4639.0  1.24966e+06
   4640.0  1.25048e+06
   4641.0  1.25130e+06
   4642.0  1.25211e+06
   4643.0  1.25293e+06
   4644.0  1.25375e+06
   4645.0  1.25456e+06
   4646.0  1.25538e+06
   4647.0  1.25620e+06
   4648.0  1.25702e+06
   4649.0  1.25784e+06
   4650.0  1.25866e+06
   4651.0  1.25948e+06
   4652.0  1.26030e+06
   4653.0  1.26112e+06
   4654.0  1.26195e+06
   4655.0  1.26277e+06
   4656.0  1.26359e+06
   4657.0  1.26441e+06
   4658.0  1.26524e+06
   4659.0  1.26606e+06
   4660.0  1.26689e+06
   4661.0  1.26771e+06
   4662.0  1.26854e+06
   4663.0  1.26936e+06
   4664.0  1.27019e+06
   4665.0  1.27102e+06
   4666.0  1.27184e+06
   4667.0  1.27267e+06
   4668.0  1.27350e+06
   4669.0  1.27433e+06
   4670.0  1.27516e+06
   4671.0  1.27598e+06
   4672.0  1.27681e+06
   4673.0  1.27764e+06
   4674.0  1.27847e+06
   4675.0  1.27931e+06
   4676.0  1.28014e+06
   4677.0  1.28097e+06
   4678.0  1.28180e+06
   4679.0  1.28263e+06
   4680.0  1.28347e+06
   4681.0  1.28430e+06
   4682.0  1.28513e+06
   4683.0  1.28597e+06
   4684.0  1.28680e+06
   4685.0  1.28764e+06
   4686.0  1.28847e+06
   4687.0  1.28931e+06
   4688.0  1.29015e+06
   4689.0  1.29098e+06
   4690.0  1.29182e+06
   4691.0  1.29266e+06
   4692.0  1.29350e+06
   4693.0  1.29434e+06
   4694.0  1.29518e+06
   4695.0  1.29602e+06
   4696.0  1.29686e+06
   4697.0  1.29770e+06
   4698.0  1.29854e+06
   4699.0  1.29938e+06
   4700.0  1.30022e+06
   4701.0  1.30106e+06
   4702.0  1.30191e+06
   4703.0  1.30275e+06
   4704.0  1.30359e+06
   4705.0  1.30444e+06
   4706.0  1.30528e+06
   4707.0  1.30613e+06
   4708.0  1.30697e+06
   4709.0  1.30782e+06
   4710.0  1.30866e+06
   4711.0  1.30951e+06
   4712.0  1.31036e+06
   4713.0  1.31120e+06
   4714.0  1.31205e+06
   4715.0  1.31290e+06
   4716.0  1.31375e+06
   4717.0  1.31460e+06
   4718.0  1.31545e+06
   4719.0  1.31630e+06
   4720.0  1.31715e+06
   4721.0  1.31800e+06
   4722.0  1.31885e+06
   4723.0  1.31970e+06
   4724.0  1.32056e+06
   4725.0  1.32141e+06
   4726.0  1.32226e+06
   4727.0  1.32312e+06
   4728.0  1.32397e+06
   4729.0  1.32483e+06
   4730.0  1.32568e+06
   4731.0  1.32654e+06
   4732.0  1.32739e+06
   4733.0  1.32825e+06
   4734.0  1.32910e+06
   4735.0  1.32996e+06
   4736.0  1.33082e+06
   4737.0  1.33168e+06
   4738.0  1.33254e+06
   4739.0  1.33340e+06
   4740.0  1.33425e+06
   4741.0  1.33511e+06
   4742.0  1.33598e+06
   4743.0  1.33684e+06
   4744.0  1.33770e+06
   4745.0  1.33856e+06
   4746.0  1.33942e+06
   4747.0  1.34028e+06
   4748.0  1.34115e+06
   4749.0  1.34201e+06
   4750.0  1.34287e+06
   4751.0  1.34374e+06
   4752.0  1.34460e+06
   4753.0  1.34547e+06
   4754.0  1.34633e+06
   4755.0  1.34720e+06
   4756.0  1.34807e+06
   4757.0  1.34893e+06
   4758.0  1.34980e+06
   4759.0  1.35067e+06
   4760.0  1.35154e+06
   4761.0  1.35241e+06
   4762.0  1.35328e+06
   4763.0  1.35414e+06
   4764.0  1.35502e+06
   4765.0  1.35589e+06
   4766.0  1.35676e+06
   4767.0  1.35763e+06
   4768.0  1.35850e+06
   4769.0  1.35937e+06
   4770.0  1.36025e+06
   4771.0  1.36112e+06
   4772.0  1.36199e+06
   4773.0  1.36287e+06
   4774.0  1.36374e+06
   4775.0  1.36462e+06
   4776.0  1.36549e+06
   4777.0  1.36637e+06
   4778.0  1.36724e+06
   4779.0  1.36812e+06
   4780.0  1.36900e+06
   4781.0  1.36988e+06
   4782.0  1.37075e+06
   4783.0  1.37163e+06
   4784.0  1.37251e+06
   4785.0  1.37339e+06
   4786.0  1.37427e+06
   4787.0  1.37515e+06
   4788.0  1.37603e+06
   4789.0  1.37691e+06
   4790.0  1.37780e+06
   4791.0  1.37868e+06
   4792.0  1.37956e+06
   4793.0  1.38044e+06
   4794.0  1.38133e+06
   4795.0  1.38221e+06
   4796.0  1.38310e+06
   4797.0  1.38398e+06
   4798.0  1.38487e+06
   4799.0  1.38575e+06
   4800.0  1.38664e+06
   4801.0  1.38753e+06
   4802.0  1.38841e+06
   4803.0  1.38930e+06
   4804.0  1.39019e+06
   4805.0  1.39108e+06
   4806.0  1.39197e+06
   4807.0  1.39286e+06
   4808.0  1.39375e+06
   4809.0  1.39464e+06
   4810.0  1.39553e+06
   4811.0  1.39642e+06
   4812.0  1.39731e+06
   4813.0  1.39820e+06
   4814.0  1.39909e+06
   4815.0  1.39999e+06
   4816.0  1.40088e+06
   4817.0  1.40177e+06
   4818.0  1.40267e+06
   4819.0  1.40356e+06
   4820.0  1.40446e+06
   4821.0  1.40536e+06
   4822.0  1.40625e+06
   4823.0  1.40715e+06
   4824.0  1.40805e+06
   4825.0  1.40894e+06
   4826.0  1.40984e+06
   4827.0  1.41074e+06
   4828.0  1.41164e+06
   4829.0  1.41254e+06
   4830.0  1.41344e+06
   4831.0  1.41434e+06
   4832.0  1.41524e+06
   4833.0  1.41614e+06
   4834.0  1.41704e+06
   4835.0  1.41794e+06
   4836.0  1.41885e+06
   4837.0  1.41975e+06
   4838.0  1.42065e+06
   4839.0  1.42156e+06
   4840.0  1.42246e+06
   4841.0  1.42337e+06
   4842.0  1.42427e+06
   4843.0  1.42518e+06
   4844.0  1.42609e+06
   4845.0  1.42699e+06
   4846.0  1.42790e+06
   4847.0  1.42881e+06
   4848.0  1.42972e+06
   4849.0  1.43062e+06
   4850.0  1.43153e+06
   4851.0  1.43244e+06
   4852.0  1.43335e+06
   4853.0  1.43426e+06
   4854.0  1.43517e+06
   4855.0  1.43609e+06
   4856.0  1.43700e+06
   4857.0  1.43791e+06
   4858.0  1.43882e+06
   4859.0  1.43974e+06
   4860.0  1.44065e+06
   4861.0  1.44156e+06
   4862.0  1.44248e+06
   4863.0  1.44339e+06
   4864.0  1.44431e+06
   4865.0  1.44522e+06
   4866.0  1.44614e+06
   4867.0  1.44706e+06
   4868.0  1.44797e+06
   4869.0  1.44889e+06
   4870.0  1.44981e+06
   4871.0  1.45073e+06
   4872.0  1.45165e+06
   4873.0  1.45257e+06
   4874.0  1.45349e+06
   4875.0  1.45441e+06
   4876.0  1.45533e+06
   4877.0  1.45625e+06
   4878.0  1.45717e+06
   4879.0  1.45810e+06
   4880.0  1.45902e+06
   4881.0  1.45994e+06
   4882.0  1.46087e+06
   4883.0  1.46179e+06
   4884.0  1.46272e+06
   4885.0  1.46364e+06
   4886.0  1.46457e+06
   4887.0  1.46549e+06
   4888.0  1.46642e+06
   4889.0  1.46735e+06
   4890.0  1.46827e+06
   4891.0  1.46920e+06
   4892.0  1.47013e+06
   4893.0  1.47106e+06
   4894.0  1.47199e+06
   4895.0  1.47292e+06
   4896.0  1.47385e+06
   4897.0  1.47478e+06
   4898.0  1.47571e+06
   4899.0  1.47664e+06
   4900.0  1.47757e+06
   4901.0  1.47851e+06
   4902.0  1.47944e+06
   4903.0  1.48037e+06
   4904.0  1.48131e+06
   4905.0  1.48224e+06
   4906.0  1.48318e+06
   4907.0  1.48411e+06
   4908.0  1.48505e+06
   4909.0  1.48599e+06
   4910.0  1.48692e+06
   4911.0  1.48786e+06
   4912.0  1.48880e+06
   4913.0  1.48974e+06
   4914.0  1.49067e+06
   4915.0  1.49161e+06
   4916.0  1.49255e+06
   4917.0  1.49349e+06
   4918.0  1.49443e+06
   4919.0  1.49538e+06
   4920.0  1.49632e+06
   4921.0  1.49726e+06
   4922.0  1.49820e+06
   4923.0  1.49914e+06
   4924.0  1.50009e+06
   4925.0  1.50103e+06
   4926.0  1.50198e+06
   4927.0  1.50292e+06
   4928.0  1.50387e+06
   4929.0  1.50481e+06
   4930.0  1.50576e+06
   4931.0  1.50671e+06
   4932.0  1.50765e+06
   4933.0  1.50860e+06
   4934.0  1.50955e+06
   4935.0  1.51050e+06
   4936.0  1.51145e+06
   4937.0  1.51240e+06
   4938.0  1.51335e+06
   4939.0  1.51430e+06
   4940.0  1.51525e+06
   4941.0  1.51620e+06
   4942.0  1.51715e+06
   4943.0  1.51810e+06
   4944.0  1.51906e+06
   4945.0  1.52001e+06
   4946.0  1.52096e+06
   4947.0  1.52192e+06
   4948.0  1.52287e+06
   4949.0  1.52383e+06
   4950.0  1.52478e+06
   4951.0  1.52574e+06
   4952.0  1.52670e+06
   4953.0  1.52765e+06
   4954.0  1.52861e+06
   4955.0  1.52957e+06
   4956.0  1.53053e+06
   4957.0  1.53149e+06
   4958.0  1.53245e+06
   4959.0  1.53341e+06
   4960.0  1.53437e+06
   4961.0  1.53533e+06
   4962.0  1.53629e+06
   4963.0  1.53725e+06
   4964.0  1.53821e+06
   4965.0  1.53918e+06
   4966.0  1.54014e+06
   4967.0  1.54110e+06
   4968.0  1.54207e+06
   4969.0  1.54303e+06
   4970.0  1.54400e+06
   4971.0  1.54496e+06
   4972.0  1.54593e+06
   4973.0  1.54690e+06
   4974.0  1.54786e+06
   4975.0  1.54883e+06
   4976.0  1.54980e+06
   4977.0  1.55077e+06
   4978.0  1.55174e+06
   4979.0  1.55271e+06
   4980.0  1.55368e+06
   4981.0  1.55465e+06
   4982.0  1.55562e+06
   4983.0  1.55659e+06
   4984.0  1.55756e+06
   4985.0  1.55853e+06
   4986.0  1.55951e+06
   4987.0  1.56048e+06
   4988.0  1.56145e+06
   4989.0  1.56243e+06
   4990.0  1.56340e+06
   4991.0  1.56438e+06
   4992.0  1.56535e+06
   4993.0  1.56633e+06
   4994.0  1.56731e+06
   4995.0  1.56828e+06
   4996.0  1.56926e+06
   4997.0  1.57024e+06
   4998.0  1.57122e+06
   4999.0  1.57220e+06
   5000.0  1.57318e+06
   5001.0  1.57416e+06
   5002.0  1.57514e+06
   5003.0  1.57612e+06
   5004.0  1.57710e+06
   5005.0  1.57808e+06
   5006.0  1.57906e+06
   5007.0  1.58005e+06
   5008.0  1.58103e+06
   5009.0  1.58201e+06
   5010.0  1.58300e+06
   5011.0  1.58398e+06
   5012.0  1.58497e+06
   5013.0  1.58595e+06
   5014.0  1.58694e+06
   5015.0  1.58793e+06
   5016.0  1.58891e+06
   5017.0  1.58990e+06
   5018.0  1.59089e+06
   5019.0  1.59188e+06
   5020.0  1.59287e+06
   5021.0  1.59386e+06
   5022.0  1.59485e+06
   5023.0  1.59584e+06
   5024.0  1.59683e+06
   5025.0  1.59782e+06
   5026.0  1.59881e+06
   5027.0  1.59981e+06
   5028.0  1.60080e+06
   5029.0  1.60179e+06
   5030.0  1.60279e+06
   5031.0  1.60378e+06
   5032.0  1.60478e+06
   5033.0  1.60577e+06
   5034.0  1.60677e+06
   5035.0  1.60776e+06
   5036.0  1.60876e+06
   5037.0  1.60976e+06
   5038.0  1.61076e+06
   5039.0  1.61176e+06
   5040.0  1.61275e+06
   5041.0  1.61375e+06
   5042.0  1.61475e+06
   5043.0  1.61575e+06
   5044.0  1.61675e+06
   5045.0  1.61776e+06
   5046.0  1.61876e+06
   5047.0  1.61976e+06
   5048.0  1.62076e+06
   5049.0  1.62177e+06
   5050.0  1.62277e+06
   5051.0  1.62377e+06
   5052.0  1.62478e+06
   5053.0  1.62578e+06
   5054.0  1.62679e+06
   5055.0  1.62780e+06
   5056.0  1.62880e+06
   5057.0  1.62981e+06
   5058.0  1.63082e+06
   5059.0  1.63183e+06
   5060.0  1.63283e+06
   5061.0  1.63384e+06
   5062.0  1.63485e+06
   5063.0  1.63586e+06
   5064.0  1.63687e+06
   5065.0  1.63789e+06
   5066.0  1.63890e+06
   5067.0  1.63991e+06
   5068.0  1.64092e+06
   5069.0  1.64193e+06
   5070.0  1.64295e+06
   5071.0  1.64396e+06
   5072.0  1.64498e+06
   5073.0  1.64599e+06
   5074.0  1.64701e+06
   5075.0  1.64802e+06
   5076.0  1.64904e+06
   5077.0  1.65006e+06
   5078.0  1.65107e+06
   5079.0  1.65209e+06
   5080.0  1.65311e+06
   5081.0  1.65413e+06
   5082.0  1.65515e+06
   5083.0  1.65617e+06
   5084.0  1.65719e+06
   5085.0  1.65821e+06
   5086.0  1.65923e+06
   5087.0  1.66025e+06
   5088.0  1.66128e+06
   5089.0  1.66230e+06
   5090.0  1.66332e+06
   5091.0  1.66435e+06
   5092.0  1.66537e+06
   5093.0  1.66640e+06
   5094.0  1.66742e+06
   5095.0  1.66845e+06
   5096.0  1.66947e+06
   5097.0  1.67050e+06
   5098.0  1.67153e+06
   5099.0  1.67256e+06
   5100.0  1.67358e+06
   5101.0  1.67461e+06
   5102.0  1.67564e+06
   5103.0  1.67667e+06
   5104.0  1.67770e+06
   5105.0  1.67873e+06
   5106.0  1.67977e+06
   5107.0  1.68080e+06
   5108.0  1.68183e+06
   5109.0  1.68286e+06
   5110.0  1.68390e+06
   5111.0  1.68493e+06
   5112.0  1.68596e+06
   5113.0  1.68700e+06
   5114.0  1.68803e+06
   5115.0  1.68907e+06
   5116.0  1.69011e+06
   5117.0  1.69114e+06
   5118.0  1.69218e+06
   5119.0  1.69322e+06
   5120.0  1.69426e+06
   5121.0  1.69529e+06
   5122.0  1.69633e+06
   5123.0  1.69737e+06
   5124.0  1.69841e+06
   5125.0  1.69946e+06
   5126.0  1.70050e+06
   5127.0  1.70154e+06
   5128.0  1.70258e+06
   5129.0  1.70362e+06
   5130.0  1.70467e+06
   5131.0  1.70571e+06
   5132.0  1.70675e+06
   5133.0  1.70780e+06
   5134.0  1.70884e+06
   5135.0  1.70989e+06
   5136.0  1.71094e+06
   5137.0  1.71198e+06
   5138.0  1.71303e+06
   5139.0  1.71408e+06
   5140.0  1.71513e+06
   5141.0  1.71618e+06
   5142.0  1.71723e+06
   5143.0  1.71827e+06
   5144.0  1.71933e+06
   5145.0  1.72038e+06
   5146.0  1.72143e+06
   5147.0  1.72248e+06
   5148.0  1.72353e+06
   5149.0  1.72458e+06
   5150.0  1.72564e+06
   5151.0  1.72669e+06
   5152.0  1.72775e+06
   5153.0  1.72880e+06
   5154.0  1.72986e+06
   5155.0  1.73091e+06
   5156.0  1.73197e+06
   5157.0  1.73302e+06
   5158.0  1.73408e+06
   5159.0  1.73514e+06
   5160.0  1.73620e+06
   5161.0  1.73726e+06
   5162.0  1.73832e+06
   5163.0  1.73938e+06
   5164.0  1.74044e+06
   5165.0  1.74150e+06
   5166.0  1.74256e+06
   5167.0  1.74362e+06
   5168.0  1.74468e+06
   5169.0  1.74575e+06
   5170.0  1.74681e+06
   5171.0  1.74787e+06
   5172.0  1.74894e+06
   5173.0  1.75000e+06
   5174.0  1.75107e+06
   5175.0  1.75213e+06
   5176.0  1.75320e+06
   5177.0  1.75427e+06
   5178.0  1.75533e+06
   5179.0  1.75640e+06
   5180.0  1.75747e+06
   5181.0  1.75854e+06
   5182.0  1.75961e+06
   5183.0  1.76068e+06
   5184.0  1.76175e+06
   5185.0  1.76282e+06
   5186.0  1.76389e+06
   5187.0  1.76496e+06
   5188.0  1.76604e+06
   5189.0  1.76711e+06
   5190.0  1.76818e+06
   5191.0  1.76926e+06
   5192.0  1.77033e+06
   5193.0  1.77141e+06
   5194.0  1.77248e+06
   5195.0  1.77356e+06
   5196.0  1.77464e+06
   5197.0  1.77571e+06
   5198.0  1.77679e+06
   5199.0  1.77787e+06
   5200.0  1.77895e+06
   5201.0  1.78003e+06
   5202.0  1.78111e+06
   5203.0  1.78219e+06
   5204.0  1.78327e+06
   5205.0  1.78435e+06
   5206.0  1.78543e+06
   5207.0  1.78651e+06
   5208.0  1.78759e+06
   5209.0  1.78868e+06
   5210.0  1.78976e+06
   5211.0  1.79085e+06
   5212.0  1.79193e+06
   5213.0  1.79302e+06
   5214.0  1.79410e+06
   5215.0  1.79519e+06
   5216.0  1.79627e+06
   5217.0  1.79736e+06
   5218.0  1.79845e+06
   5219.0  1.79954e+06
   5220.0  1.80063e+06
   5221.0  1.80172e+06
   5222.0  1.80281e+06
   5223.0  1.80390e+06
   5224.0  1.80499e+06
   5225.0  1.80608e+06
   5226.0  1.80717e+06
   5227.0  1.80826e+06
   5228.0  1.80936e+06
   5229.0  1.81045e+06
   5230.0  1.81154e+06
   5231.0  1.81264e+06
   5232.0  1.81373e+06
   5233.0  1.81483e+06
   5234.0  1.81592e+06
   5235.0  1.81702e+06
   5236.0  1.81812e+06
   5237.0  1.81922e+06
   5238.0  1.82031e+06
   5239.0  1.82141e+06
   5240.0  1.82251e+06
   5241.0  1.82361e+06
   5242.0  1.82471e+06
   5243.0  1.82581e+06
   5244.0  1.82691e+06
   5245.0  1.82801e+06
   5246.0  1.82912e+06
   5247.0  1.83022e+06
   5248.0  1.83132e+06
   5249.0  1.83243e+06
   5250.0  1.83353e+06
   5251.0  1.83464e+06
   5252.0  1.83574e+06
   5253.0  1.83685e+06
   5254.0  1.83795e+06
   5255.0  1.83906e+06
   5256.0  1.84017e+06
   5257.0  1.84127e+06
   5258.0  1.84238e+06
   5259.0  1.84349e+06
   5260.0  1.84460e+06
   5261.0  1.84571e+06
   5262.0  1.84682e+06
   5263.0  1.84793e+06
   5264.0  1.84904e+06
   5265.0  1.85016e+06
   5266.0  1.85127e+06
   5267.0  1.85238e+06
   5268.0  1.85350e+06
   5269.0  1.85461e+06
   5270.0  1.85572e+06
   5271.0  1.85684e+06
   5272.0  1.85796e+06
   5273.0  1.85907e+06
   5274.0  1.86019e+06
   5275.0  1.86131e+06
   5276.0  1.86242e+06
   5277.0  1.86354e+06
   5278.0  1.86466e+06
   5279.0  1.86578e+06
   5280.0  1.86690e+06
   5281.0  1.86802e+06
   5282.0  1.86914e+06
   5283.0  1.87026e+06
   5284.0  1.87138e+06
   5285.0  1.87251e+06
   5286.0  1.87363e+06
   5287.0  1.87475e+06
   5288.0  1.87588e+06
   5289.0  1.87700e+06
   5290.0  1.87813e+06
   5291.0  1.87925e+06
   5292.0  1.88038e+06
   5293.0  1.88151e+06
   5294.0  1.88263e+06
   5295.0  1.88376e+06
   5296.0  1.88489e+06
   5297.0  1.88602e+06
   5298.0  1.88715e+06
   5299.0  1.88828e+06
   5300.0  1.88941e+06
   5301.0  1.89054e+06
   5302.0  1.89167e+06
   5303.0  1.89280e+06
   5304.0  1.89393e+06
   5305.0  1.89507e+06
   5306.0  1.89620e+06
   5307.0  1.89733e+06
   5308.0  1.89847e+06
   5309.0  1.89960e+06
   5310.0  1.90074e+06
   5311.0  1.90187e+06
   5312.0  1.90301e+06
   5313.0  1.90415e+06
   5314.0  1.90529e+06
   5315.0  1.90642e+06
   5316.0  1.90756e+06
   5317.0  1.90870e+06
   5318.0  1.90984e+06
   5319.0  1.91098e+06
   5320.0  1.91212e+06
   5321.0  1.91326e+06
   5322.0  1.91441e+06
   5323.0  1.91555e+06
   5324.0  1.91669e+06
   5325.0  1.91783e+06
   5326.0  1.91898e+06
   5327.0  1.92012e+06
   5328.0  1.92127e+06
   5329.0  1.92241e+06
   5330.0  1.92356e+06
   5331.0  1.92471e+06
   5332.0  1.92585e+06
   5333.0  1.92700e+06
   5334.0  1.92815e+06
   5335.0  1.92930e+06
   5336.0  1.93045e+06
   5337.0  1.93160e+06
   5338.0  1.93275e+06
   5339.0  1.93390e+06
   5340.0  1.93505e+06
   5341.0  1.93620e+06
   5342.0  1.93735e+06
   5343.0  1.93851e+06
   5344.0  1.93966e+06
   5345.0  1.94081e+06
   5346.0  1.94197e+06
   5347.0  1.94312e+06
   5348.0  1.94428e+06
   5349.0  1.94544e+06
   5350.0  1.94659e+06
   5351.0  1.94775e+06
   5352.0  1.94891e+06
   5353.0  1.95007e+06
   5354.0  1.95122e+06
   5355.0  1.95238e+06
   5356.0  1.95354e+06
   5357.0  1.95470e+06
   5358.0  1.95587e+06
   5359.0  1.95703e+06
   5360.0  1.95819e+06
   5361.0  1.95935e+06
   5362.0  1.96051e+06
   5363.0  1.96168e+06
   5364.0  1.96284e+06
   5365.0  1.96401e+06
   5366.0  1.96517e+06
   5367.0  1.96634e+06
   5368.0  1.96750e+06
   5369.0  1.96867e+06
   5370.0  1.96984e+06
   5371.0  1.97101e+06
   5372.0  1.97217e+06
   5373.0  1.97334e+06
   5374.0  1.97451e+06
   5375.0  1.97568e+06
   5376.0  1.97685e+06
   5377.0  1.97802e+06
   5378.0  1.97920e+06
   5379.0  1.98037e+06
   5380.0  1.98154e+06
   5381.0  1.98271e+06
   5382.0  1.98389e+06
   5383.0  1.98506e+06
   5384.0  1.98624e+06
   5385.0  1.98741e+06
   5386.0  1.98859e+06
   5387.0  1.98976e+06
   5388.0  1.99094e+06
   5389.0  1.99212e+06
   5390.0  1.99330e+06
   5391.0  1.99448e+06
   5392.0  1.99565e+06
   5393.0  1.99683e+06
   5394.0  1.99801e+06
   5395.0  1.99920e+06
   5396.0  2.00038e+06
   5397.0  2.00156e+06
   5398.0  2.00274e+06
   5399.0  2.00392e+06
   5400.0  2.00511e+06
   5401.0  2.00629e+06
   5402.0  2.00748e+06
   5403.0  2.00866e+06
   5404.0  2.00985e+06
   5405.0  2.01103e+06
   5406.0  2.01222e+06
   5407.0  2.01341e+06
   5408.0  2.01459e+06
   5409.0  2.01578e+06
   5410.0  2.01697e+06
   5411.0  2.01816e+06
   5412.0  2.01935e+06
   5413.0  2.02054e+06
   5414.0  2.02173e+06
   5415.0  2.02292e+06
   5416.0  2.02412e+06
   5417.0  2.02531e+06
   5418.0  2.02650e+06
   5419.0  2.02769e+06
   5420.0  2.02889e+06
   5421.0  2.03008e+06
   5422.0  2.03128e+06
   5423.0  2.03247e+06
   5424.0  2.03367e+06
   5425.0  2.03487e+06
   5426.0  2.03607e+06
   5427.0  2.03726e+06
   5428.0  2.03846e+06
   5429.0  2.03966e+06
   5430.0  2.04086e+06
   5431.0  2.04206e+06
   5432.0  2.04326e+06
   5433.0  2.04446e+06
   5434.0  2.04566e+06
   5435.0  2.04687e+06
   5436.0  2.04807e+06
   5437.0  2.04927e+06
   5438.0  2.05048e+06
   5439.0  2.05168e+06
   5440.0  2.05289e+06
   5441.0  2.05409e+06
   5442.0  2.05530e+06
   5443.0  2.05651e+06
   5444.0  2.05771e+06
   5445.0  2.05892e+06
   5446.0  2.06013e+06
   5447.0  2.06134e+06
   5448.0  2.06255e+06
   5449.0  2.06376e+06
   5450.0  2.06497e+06
   5451.0  2.06618e+06
   5452.0  2.06739e+06
   5453.0  2.06860e+06
   5454.0  2.06982e+06
   5455.0  2.07103e+06
   5456.0  2.07224e+06
   5457.0  2.07346e+06
   5458.0  2.07467e+06
   5459.0  2.07589e+06
   5460.0  2.07710e+06
   5461.0  2.07832e+06
   5462.0  2.07954e+06
   5463.0  2.08075e+06
   5464.0  2.08197e+06
   5465.0  2.08319e+06
   5466.0  2.08441e+06
   5467.0  2.08563e+06
   5468.0  2.08685e+06
   5469.0  2.08807e+06
   5470.0  2.08929e+06
   5471.0  2.09051e+06
   5472.0  2.09174e+06
   5473.0  2.09296e+06
   5474.0  2.09418e+06
   5475.0  2.09541e+06
   5476.0  2.09663e+06
   5477.0  2.09786e+06
   5478.0  2.09908e+06
   5479.0  2.10031e+06
   5480.0  2.10154e+06
   5481.0  2.10277e+06
   5482.0  2.10399e+06
   5483.0  2.10522e+06
   5484.0  2.10645e+06
   5485.0  2.10768e+06
   5486.0  2.10891e+06
   5487.0  2.11014e+06
   5488.0  2.11137e+06
   5489.0  2.11261e+06
   5490.0  2.11384e+06
   5491.0  2.11507e+06
   5492.0  2.11630e+06
   5493.0  2.11754e+06
   5494.0  2.11877e+06
   5495.0  2.12001e+06
   5496.0  2.12124e+06
   5497.0  2.12248e+06
   5498.0  2.12372e+06
   5499.0  2.12495e+06
   5500.0  2.12619e+06
   5501.0  2.12743e+06
   5502.0  2.12867e+06
   5503.0  2.12991e+06
   5504.0  2.13115e+06
   5505.0  2.13239e+06
   5506.0  2.13363e+06
   5507.0  2.13487e+06
   5508.0  2.13612e+06
   5509.0  2.13736e+06
   5510.0  2.13860e+06
   5511.0  2.13985e+06
   5512.0  2.14109e+06
   5513.0  2.14234e+06
   5514.0  2.14358e+06
   5515.0  2.14483e+06
   5516.0  2.14608e+06
   5517.0  2.14732e+06
   5518.0  2.14857e+06
   5519.0  2.14982e+06
   5520.0  2.15107e+06
   5521.0  2.15232e+06
   5522.0  2.15357e+06
   5523.0  2.15482e+06
   5524.0  2.15607e+06
   5525.0  2.15732e+06
   5526.0  2.15857e+06
   5527.0  2.15983e+06
   5528.0  2.16108e+06
   5529.0  2.16233e+06
   5530.0  2.16359e+06
   5531.0  2.16484e+06
   5532.0  2.16610e+06
   5533.0  2.16736e+06
   5534.0  2.16861e+06
   5535.0  2.16987e+06
   5536.0  2.17113e+06
   5537.0  2.17239e+06
   5538.0  2.17365e+06
   5539.0  2.17491e+06
   5540.0  2.17617e+06
   5541.0  2.17743e+06
   5542.0  2.17869e+06
   5543.0  2.17995e+06
   5544.0  2.18121e+06
   5545.0  2.18248e+06
   5546.0  2.18374e+06
   5547.0  2.18500e+06
   5548.0  2.18627e+06
   5549.0  2.18753e+06
   5550.0  2.18880e+06
   5551.0  2.19006e+06
   5552.0  2.19133e+06
   5553.0  2.19260e+06
   5554.0  2.19387e+06
   5555.0  2.19514e+06
   5556.0  2.19641e+06
   5557.0  2.19767e+06
   5558.0  2.19895e+06
   5559.0  2.20022e+06
   5560.0  2.20149e+06
   5561.0  2.20276e+06
   5562.0  2.20403e+06
   5563.0  2.20530e+06
   5564.0  2.20658e+06
   5565.0  2.20785e+06
   5566.0  2.20913e+06
   5567.0  2.21040e+06
   5568.0  2.21168e+06
   5569.0  2.21295e+06
   5570.0  2.21423e+06
   5571.0  2.21551e+06
   5572.0  2.21679e+06
   5573.0  2.21807e+06
   5574.0  2.21935e+06
   5575.0  2.22063e+06
   5576.0  2.22191e+06
   5577.0  2.22319e+06
   5578.0  2.22447e+06
   5579.0  2.22575e+06
   5580.0  2.22703e+06
   5581.0  2.22832e+06
   5582.0  2.22960e+06
   5583.0  2.23088e+06
   5584.0  2.23217e+06
   5585.0  2.23345e+06
   5586.0  2.23474e+06
   5587.0  2.23603e+06
   5588.0  2.23731e+06
   5589.0  2.23860e+06
   5590.0  2.23989e+06
   5591.0  2.24118e+06
   5592.0  2.24247e+06
   5593.0  2.24376e+06
   5594.0  2.24505e+06
   5595.0  2.24634e+06
   5596.0  2.24763e+06
   5597.0  2.24892e+06
   5598.0  2.25022e+06
   5599.0  2.25151e+06
   5600.0  2.25280e+06
   5601.0  2.25410e+06
   5602.0  2.25539e+06
   5603.0  2.25669e+06
   5604.0  2.25799e+06
   5605.0  2.25928e+06
   5606.0  2.26058e+06
   5607.0  2.26188e+06
   5608.0  2.26318e+06
   5609.0  2.26448e+06
   5610.0  2.26577e+06
   5611.0  2.26708e+06
   5612.0  2.26838e+06
   5613.0  2.26968e+06
   5614.0  2.27098e+06
   5615.0  2.27228e+06
   5616.0  2.27358e+06
   5617.0  2.27489e+06
   5618.0  2.27619e+06
   5619.0  2.27750e+06
   5620.0  2.27880e+06
   5621.0  2.28011e+06
   5622.0  2.28141e+06
   5623.0  2.28272e+06
   5624.0  2.28403e+06
   5625.0  2.28534e+06
   5626.0  2.28665e+06
   5627.0  2.28796e+06
   5628.0  2.28927e+06
   5629.0  2.29058e+06
   5630.0  2.29189e+06
   5631.0  2.29320e+06
   5632.0  2.29451e+06
   5633.0  2.29582e+06
   5634.0  2.29714e+06
   5635.0  2.29845e+06
   5636.0  2.29976e+06
   5637.0  2.30108e+06
   5638.0  2.30240e+06
   5639.0  2.30371e+06
   5640.0  2.30503e+06
   5641.0  2.30635e+06
   5642.0  2.30766e+06
   5643.0  2.30898e+06
   5644.0  2.31030e+06
   5645.0  2.31162e+06
   5646.0  2.31294e+06
   5647.0  2.31426e+06
   5648.0  2.31558e+06
   5649.0  2.31690e+06
   5650.0  2.31823e+06
   5651.0  2.31955e+06
   5652.0  2.32087e+06
   5653.0  2.32220e+06
   5654.0  2.32352e+06
   5655.0  2.32485e+06
   5656.0  2.32617e+06
   5657.0  2.32750e+06
   5658.0  2.32883e+06
   5659.0  2.33016e+06
   5660.0  2.33148e+06
   5661.0  2.33281e+06
   5662.0  2.33414e+06
   5663.0  2.33547e+06
   5664.0  2.33680e+06
   5665.0  2.33813e+06
   5666.0  2.33946e+06
   5667.0  2.34080e+06
   5668.0  2.34213e+06
   5669.0  2.34346e+06
   5670.0  2.34480e+06
   5671.0  2.34613e+06
   5672.0  2.34747e+06
   5673.0  2.34880e+06
   5674.0  2.35014e+06
   5675.0  2.35148e+06
   5676.0  2.35281e+06
   5677.0  2.35415e+06
   5678.0  2.35549e+06
   5679.0  2.35683e+06
   5680.0  2.35817e+06
   5681.0  2.35951e+06
   5682.0  2.36085e+06
   5683.0  2.36219e+06
   5684.0  2.36353e+06
   5685.0  2.36488e+06
   5686.0  2.36622e+06
   5687.0  2.36756e+06
   5688.0  2.36891e+06
   5689.0  2.37025e+06
   5690.0  2.37160e+06
   5691.0  2.37294e+06
   5692.0  2.37429e+06
   5693.0  2.37564e+06
   5694.0  2.37699e+06
   5695.0  2.37833e+06
   5696.0  2.37968e+06
   5697.0  2.38103e+06
   5698.0  2.38238e+06
   5699.0  2.38373e+06
   5700.0  2.38508e+06
   5701.0  2.38644e+06
   5702.0  2.38779e+06
   5703.0  2.38914e+06
   5704.0  2.39050e+06
   5705.0  2.39185e+06
   5706.0  2.39320e+06
   5707.0  2.39456e+06
   5708.0  2.39592e+06
   5709.0  2.39727e+06
   5710.0  2.39863e+06
   5711.0  2.39999e+06
   5712.0  2.40135e+06
   5713.0  2.40270e+06
   5714.0  2.40406e+06
   5715.0  2.40542e+06
   5716.0  2.40678e+06
   5717.0  2.40815e+06
   5718.0  2.40951e+06
   5719.0  2.41087e+06
   5720.0  2.41223e+06
   5721.0  2.41360e+06
   5722.0  2.41496e+06
   5723.0  2.41633e+06
   5724.0  2.41769e+06
   5725.0  2.41906e+06
   5726.0  2.42042e+06
   5727.0  2.42179e+06
   5728.0  2.42316e+06
   5729.0  2.42453e+06
   5730.0  2.42589e+06
   5731.0  2.42726e+06
   5732.0  2.42863e+06
   5733.0  2.43000e+06
   5734.0  2.43138e+06
   5735.0  2.43275e+06
   5736.0  2.43412e+06
   5737.0  2.43549e+06
   5738.0  2.43687e+06
   5739.0  2.43824e+06
   5740.0  2.43962e+06
   5741.0  2.44099e+06
   5742.0  2.44237e+06
   5743.0  2.44374e+06
   5744.0  2.44512e+06
   5745.0  2.44650e+06
   5746.0  2.44788e+06
   5747.0  2.44925e+06
   5748.0  2.45063e+06
   5749.0  2.45201e+06
   5750.0  2.45339e+06
   5751.0  2.45478e+06
   5752.0  2.45616e+06
   5753.0  2.45754e+06
   5754.0  2.45892e+06
   5755.0  2.46031e+06
   5756.0  2.46169e+06
   5757.0  2.46307e+06
   5758.0  2.46446e+06
   5759.0  2.46585e+06
   5760.0  2.46723e+06
   5761.0  2.46862e+06
   5762.0  2.47001e+06
   5763.0  2.47139e+06
   5764.0  2.47278e+06
   5765.0  2.47417e+06
   5766.0  2.47556e+06
   5767.0  2.47695e+06
   5768.0  2.47834e+06
   5769.0  2.47974e+06
   5770.0  2.48113e+06
   5771.0  2.48252e+06
   5772.0  2.48392e+06
   5773.0  2.48531e+06
   5774.0  2.48670e+06
   5775.0  2.48810e+06
   5776.0  2.48950e+06
   5777.0  2.49089e+06
   5778.0  2.49229e+06
   5779.0  2.49369e+06
   5780.0  2.49508e+06
   5781.0  2.49648e+06
   5782.0  2.49788e+06
   5783.0  2.49928e+06
   5784.0  2.50068e+06
   5785.0  2.50208e+06
   5786.0  2.50349e+06
   5787.0  2.50489e+06
   5788.0  2.50629e+06
   5789.0  2.50770e+06
   5790.0  2.50910e+06
   5791.0  2.51050e+06
   5792.0  2.51191e+06
   5793.0  2.51332e+06
   5794.0  2.51472e+06
   5795.0  2.51613e+06
   5796.0  2.51754e+06
   5797.0  2.51895e+06
   5798.0  2.52035e+06
   5799.0  2.52176e+06
   5800.0  2.52317e+06
   5801.0  2.52458e+06
   5802.0  2.52600e+06
   5803.0  2.52741e+06
   5804.0  2.52882e+06
   5805.0  2.53023e+06
   5806.0  2.53165e+06
   5807.0  2.53306e+06
   5808.0  2.53448e+06
   5809.0  2.53589e+06
   5810.0  2.53731e+06
   5811.0  2.53872e+06
   5812.0  2.54014e+06
   5813.0  2.54156e+06
   5814.0  2.54298e+06
   5815.0  2.54440e+06
   5816.0  2.54582e+06
   5817.0  2.54724e+06
   5818.0  2.54866e+06
   5819.0  2.55008e+06
   5820.0  2.55150e+06
   5821.0  2.55292e+06
   5822.0  2.55435e+06
   5823.0  2.55577e+06
   5824.0  2.55719e+06
   5825.0  2.55862e+06
   5826.0  2.56005e+06
   5827.0  2.56147e+06
   5828.0  2.56290e+06
   5829.0  2.56433e+06
   5830.0  2.56575e+06
   5831.0  2.56718e+06
   5832.0  2.56861e+06
   5833.0  2.57004e+06
   5834.0  2.57147e+06
   5835.0  2.57290e+06
   5836.0  2.57433e+06
   5837.0  2.57577e+06
   5838.0  2.57720e+06
   5839.0  2.57863e+06
   5840.0  2.58007e+06
   5841.0  2.58150e+06
   5842.0  2.58294e+06
   5843.0  2.58437e+06
   5844.0  2.58581e+06
   5845.0  2.58725e+06
   5846.0  2.58868e+06
   5847.0  2.59012e+06
   5848.0  2.59156e+06
   5849.0  2.59300e+06
   5850.0  2.59444e+06
   5851.0  2.59588e+06
   5852.0  2.59732e+06
   5853.0  2.59876e+06
   5854.0  2.60021e+06
   5855.0  2.60165e+06
   5856.0  2.60309e+06
   5857.0  2.60454e+06
   5858.0  2.60598e+06
   5859.0  2.60743e+06
   5860.0  2.60887e+06
   5861.0  2.61032e+06
   5862.0  2.61177e+06
   5863.0  2.61322e+06
   5864.0  2.61466e+06
   5865.0  2.61611e+06
   5866.0  2.61756e+06
   5867.0  2.61901e+06
   5868.0  2.62046e+06
   5869.0  2.62191e+06
   5870.0  2.62337e+06
   5871.0  2.62482e+06
   5872.0  2.62627e+06
   5873.0  2.62773e+06
   5874.0  2.62918e+06
   5875.0  2.63064e+06
   5876.0  2.63209e+06
   5877.0  2.63355e+06
   5878.0  2.63501e+06
   5879.0  2.63646e+06
   5880.0  2.63792e+06
   5881.0  2.63938e+06
   5882.0  2.64084e+06
   5883.0  2.64230e+06
   5884.0  2.64376e+06
   5885.0  2.64522e+06
   5886.0  2.64668e+06
   5887.0  2.64814e+06
   5888.0  2.64961e+06
   5889.0  2.65107e+06
   5890.0  2.65254e+06
   5891.0  2.65400e+06
   5892.0  2.65547e+06
   5893.0  2.65693e+06
   5894.0  2.65840e+06
   5895.0  2.65987e+06
   5896.0  2.66133e+06
   5897.0  2.66280e+06
   5898.0  2.66427e+06
   5899.0  2.66574e+06
   5900.0  2.66721e+06
   5901.0  2.66868e+06
   5902.0  2.67015e+06
   5903.0  2.67163e+06
   5904.0  2.67310e+06
   5905.0  2.67457e+06
   5906.0  2.67605e+06
   5907.0  2.67752e+06
   5908.0  2.67900e+06
   5909.0  2.68047e+06
   5910.0  2.68195e+06
   5911.0  2.68342e+06
   5912.0  2.68490e+06
   5913.0  2.68638e+06
   5914.0  2.68786e+06
   5915.0  2.68934e+06
   5916.0  2.69082e+06
   5917.0  2.69230e+06
   5918.0  2.69378e+06
   5919.0  2.69526e+06
   5920.0  2.69674e+06
   5921.0  2.69823e+06
   5922.0  2.69971e+06
   5923.0  2.70120e+06
   5924.0  2.70268e+06
   5925.0  2.70417e+06
   5926.0  2.70565e+06
   5927.0  2.70714e+06
   5928.0  2.70863e+06
   5929.0  2.71011e+06
   5930.0  2.71160e+06
   5931.0  2.71309e+06
   5932.0  2.71458e+06
   5933.0  2.71607e+06
   5934.0  2.71756e+06
   5935.0  2.71906e+06
   5936.0  2.72055e+06
   5937.0  2.72204e+06
   5938.0  2.72353e+06
   5939.0  2.72503e+06
   5940.0  2.72652e+06
   5941.0  2.72802e+06
   5942.0  2.72951e+06
   5943.0  2.73101e+06
   5944.0  2.73251e+06
   5945.0  2.73401e+06
   5946.0  2.73550e+06
   5947.0  2.73700e+06
   5948.0  2.73850e+06
   5949.0  2.74000e+06
   5950.0  2.74150e+06
   5951.0  2.74301e+06
   5952.0  2.74451e+06
   5953.0  2.74601e+06
   5954.0  2.74751e+06
   5955.0  2.74902e+06
   5956.0  2.75052e+06
   5957.0  2.75203e+06
   5958.0  2.75353e+06
   5959.0  2.75504e+06
   5960.0  2.75655e+06
   5961.0  2.75805e+06
   5962.0  2.75956e+06
   5963.0  2.76107e+06
   5964.0  2.76258e+06
   5965.0  2.76409e+06
   5966.0  2.76560e+06
   5967.0  2.76711e+06
   5968.0  2.76862e+06
   5969.0  2.77014e+06
   5970.0  2.77165e+06
   5971.0  2.77316e+06
   5972.0  2.77468e+06
   5973.0  2.77619e+06
   5974.0  2.77771e+06
   5975.0  2.77923e+06
   5976.0  2.78074e+06
   5977.0  2.78226e+06
   5978.0  2.78378e+06
   5979.0  2.78530e+06
   5980.0  2.78682e+06
   5981.0  2.78834e+06
   5982.0  2.78986e+06
   5983.0  2.79138e+06
   5984.0  2.79290e+06
   5985.0  2.79442e+06
   5986.0  2.79595e+06
   5987.0  2.79747e+06
   5988.0  2.79899e+06
   5989.0  2.80052e+06
   5990.0  2.80204e+06
   5991.0  2.80357e+06
   5992.0  2.80510e+06
   5993.0  2.80663e+06
   5994.0  2.80815e+06
   5995.0  2.80968e+06
   5996.0  2.81121e+06
   5997.0  2.81274e+06
   5998.0  2.81427e+06
   5999.0  2.81580e+06
   6000.0  2.81733e+06
   6001.0  2.81887e+06
   6002.0  2.82040e+06
   6003.0  2.82193e+06
   6004.0  2.82347e+06
   6005.0  2.82500e+06
   6006.0  2.82654e+06
   6007.0  2.82808e+06
   6008.0  2.82961e+06
   6009.0  2.83115e+06
   6010.0  2.83269e+06
   6011.0  2.83423e+06
   6012.0  2.83577e+06
   6013.0  2.83731e+06
   6014.0  2.83885e+06
   6015.0  2.84039e+06
   6016.0  2.84193e+06
   6017.0  2.84347e+06
   6018.0  2.84501e+06
   6019.0  2.84656e+06
   6020.0  2.84810e+06
   6021.0  2.84965e+06
   6022.0  2.85119e+06
   6023.0  2.85274e+06
   6024.0  2.85429e+06
   6025.0  2.85583e+06
   6026.0  2.85738e+06
   6027.0  2.85893e+06
   6028.0  2.86048e+06
   6029.0  2.86203e+06
   6030.0  2.86358e+06
   6031.0  2.86513e+06
   6032.0  2.86668e+06
   6033.0  2.86823e+06
   6034.0  2.86979e+06
   6035.0  2.87134e+06
   6036.0  2.87290e+06
   6037.0  2.87445e+06
   6038.0  2.87601e+06
   6039.0  2.87756e+06
   6040.0  2.87912e+06
   6041.0  2.88068e+06
   6042.0  2.88223e+06
   6043.0  2.88379e+06
   6044.0  2.88535e+06
   6045.0  2.88691e+06
   6046.0  2.88847e+06
   6047.0  2.89003e+06
   6048.0  2.89160e+06
   6049.0  2.89316e+06
   6050.0  2.89472e+06
   6051.0  2.89629e+06
   6052.0  2.89785e+06
   6053.0  2.89942e+06
   6054.0  2.90098e+06
   6055.0  2.90255e+06
   6056.0  2.90411e+06
   6057.0  2.90568e+06
   6058.0  2.90725e+06
   6059.0  2.90882e+06
   6060.0  2.91039e+06
   6061.0  2.91196e+06
   6062.0  2.91353e+06
   6063.0  2.91510e+06
   6064.0  2.91667e+06
   6065.0  2.91824e+06
   6066.0  2.91982e+06
   6067.0  2.92139e+06
   6068.0  2.92297e+06
   6069.0  2.92454e+06
   6070.0  2.92612e+06
   6071.0  2.92769e+06
   6072.0  2.92927e+06
   6073.0  2.93085e+06
   6074.0  2.93243e+06
   6075.0  2.93400e+06
   6076.0  2.93558e+06
   6077.0  2.93716e+06
   6078.0  2.93874e+06
   6079.0  2.94033e+06
   6080.0  2.94191e+06
   6081.0  2.94349e+06
   6082.0  2.94507e+06
   6083.0  2.94666e+06
   6084.0  2.94824e+06
   6085.0  2.94983e+06
   6086.0  2.95141e+06
   6087.0  2.95300e+06
   6088.0  2.95459e+06
   6089.0  2.95617e+06
   6090.0  2.95776e+06
   6091.0  2.95935e+06
   6092.0  2.96094e+06
   6093.0  2.96253e+06
   6094.0  2.96412e+06
   6095.0  2.96571e+06
   6096.0  2.96731e+06
   6097.0  2.96890e+06
   6098.0  2.97049e+06
   6099.0  2.97209e+06
   6100.0  2.97368e+06
   6101.0  2.97528e+06
   6102.0  2.97687e+06
   6103.0  2.97847e+06
   6104.0  2.98007e+06
   6105.0  2.98166e+06
   6106.0  2.98326e+06
   6107.0  2.98486e+06
   6108.0  2.98646e+06
   6109.0  2.98806e+06
   6110.0  2.98966e+06
   6111.0  2.99127e+06
   6112.0  2.99287e+06
   6113.0  2.99447e+06
   6114.0  2.99607e+06
   6115.0  2.99768e+06
   6116.0  2.99928e+06
   6117.0  3.00089e+06
   6118.0  3.00250e+06
   6119.0  3.00410e+06
   6120.0  3.00571e+06
   6121.0  3.00732e+06
   6122.0  3.00893e+06
   6123.0  3.01054e+06
   6124.0  3.01215e+06
   6125.0  3.01376e+06
   6126.0  3.01537e+06
   6127.0  3.01698e+06
   6128.0  3.01859e+06
   6129.0  3.02021e+06
   6130.0  3.02182e+06
   6131.0  3.02343e+06
   6132.0  3.02505e+06
   6133.0  3.02666e+06
   6134.0  3.02828e+06
   6135.0  3.02990e+06
   6136.0  3.03152e+06
   6137.0  3.03313e+06
   6138.0  3.03475e+06
   6139.0  3.03637e+06
   6140.0  3.03799e+06
   6141.0  3.03961e+06
   6142.0  3.04124e+06
   6143.0  3.04286e+06
   6144.0  3.04448e+06
   6145.0  3.04610e+06
   6146.0  3.04773e+06
   6147.0  3.04935e+06
   6148.0  3.05098e+06
   6149.0  3.05260e+06
   6150.0  3.05423e+06
   6151.0  3.05586e+06
   6152.0  3.05749e+06
   6153.0  3.05911e+06
   6154.0  3.06074e+06
   6155.0  3.06237e+06
   6156.0  3.06400e+06
   6157.0  3.06564e+06
   6158.0  3.06727e+06
   6159.0  3.06890e+06
   6160.0  3.07053e+06
   6161.0  3.07217e+06
   6162.0  3.07380e+06
   6163.0  3.07544e+06
   6164.0  3.07707e+06
   6165.0  3.07871e+06
   6166.0  3.08035e+06
   6167.0  3.08198e+06
   6168.0  3.08362e+06
   6169.0  3.08526e+06
   6170.0  3.08690e+06
   6171.0  3.08854e+06
   6172.0  3.09018e+06
   6173.0  3.09182e+06
   6174.0  3.09346e+06
   6175.0  3.09511e+06
   6176.0  3.09675e+06
   6177.0  3.09839e+06
   6178.0  3.10004e+06
   6179.0  3.10168e+06
   6180.0  3.10333e+06
   6181.0  3.10498e+06
   6182.0  3.10662e+06
   6183.0  3.10827e+06
   6184.0  3.10992e+06
   6185.0  3.11157e+06
   6186.0  3.11322e+06
   6187.0  3.11487e+06
   6188.0  3.11652e+06
   6189.0  3.11817e+06
   6190.0  3.11983e+06
   6191.0  3.12148e+06
   6192.0  3.12313e+06
   6193.0  3.12479e+06
   6194.0  3.12644e+06
   6195.0  3.12810e+06
   6196.0  3.12975e+06
   6197.0  3.13141e+06
   6198.0  3.13307e+06
   6199.0  3.13473e+06
   6200.0  3.13639e+06
   6201.0  3.13805e+06
   6202.0  3.13971e+06
   6203.0  3.14137e+06
   6204.0  3.14303e+06
   6205.0  3.14469e+06
   6206.0  3.14635e+06
   6207.0  3.14802e+06
   6208.0  3.14968e+06
   6209.0  3.15135e+06
   6210.0  3.15301e+06
   6211.0  3.15468e+06
   6212.0  3.15634e+06
   6213.0  3.15801e+06
   6214.0  3.15968e+06
   6215.0  3.16135e+06
   6216.0  3.16302e+06
   6217.0  3.16469e+06
   6218.0  3.16636e+06
   6219.0  3.16803e+06
   6220.0  3.16970e+06
   6221.0  3.17138e+06
   6222.0  3.17305e+06
   6223.0  3.17472e+06
   6224.0  3.17640e+06
   6225.0  3.17807e+06
   6226.0  3.17975e+06
   6227.0  3.18142e+06
   6228.0  3.18310e+06
   6229.0  3.18478e+06
   6230.0  3.18646e+06
   6231.0  3.18814e+06
   6232.0  3.18982e+06
   6233.0  3.19150e+06
   6234.0  3.19318e+06
   6235.0  3.19486e+06
   6236.0  3.19654e+06
   6237.0  3.19823e+06
   6238.0  3.19991e+06
   6239.0  3.20159e+06
   6240.0  3.20328e+06
   6241.0  3.20496e+06
   6242.0  3.20665e+06
   6243.0  3.20834e+06
   6244.0  3.21003e+06
   6245.0  3.21171e+06
   6246.0  3.21340e+06
   6247.0  3.21509e+06
   6248.0  3.21678e+06
   6249.0  3.21847e+06
   6250.0  3.22017e+06
   6251.0  3.22186e+06
   6252.0  3.22355e+06
   6253.0  3.22524e+06
   6254.0  3.22694e+06
   6255.0  3.22863e+06
   6256.0  3.23033e+06
   6257.0  3.23202e+06
   6258.0  3.23372e+06
   6259.0  3.23542e+06
   6260.0  3.23712e+06
   6261.0  3.23882e+06
   6262.0  3.24052e+06
   6263.0  3.24222e+06
   6264.0  3.24392e+06
   6265.0  3.24562e+06
   6266.0  3.24732e+06
   6267.0  3.24902e+06
   6268.0  3.25073e+06
   6269.0  3.25243e+06
   6270.0  3.25413e+06
   6271.0  3.25584e+06
   6272.0  3.25755e+06
   6273.0  3.25925e+06
   6274.0  3.26096e+06
   6275.0  3.26267e+06
   6276.0  3.26438e+06
   6277.0  3.26609e+06
   6278.0  3.26780e+06
   6279.0  3.26951e+06
   6280.0  3.27122e+06
   6281.0  3.27293e+06
   6282.0  3.27464e+06
   6283.0  3.27636e+06
   6284.0  3.27807e+06
   6285.0  3.27978e+06
   6286.0  3.28150e+06
   6287.0  3.28322e+06
   6288.0  3.28493e+06
   6289.0  3.28665e+06
   6290.0  3.28837e+06
   6291.0  3.29009e+06
   6292.0  3.29181e+06
   6293.0  3.29353e+06
   6294.0  3.29525e+06
   6295.0  3.29697e+06
   6296.0  3.29869e+06
   6297.0  3.30041e+06
   6298.0  3.30213e+06
   6299.0  3.30386e+06
   6300.0  3.30558e+06
   6301.0  3.30731e+06
   6302.0  3.30903e+06
   6303.0  3.31076e+06
   6304.0  3.31249e+06
   6305.0  3.31422e+06
   6306.0  3.31594e+06
   6307.0  3.31767e+06
   6308.0  3.31940e+06
   6309.0  3.32113e+06
   6310.0  3.32286e+06
   6311.0  3.32460e+06
   6312.0  3.32633e+06
   6313.0  3.32806e+06
   6314.0  3.32980e+06
   6315.0  3.33153e+06
   6316.0  3.33327e+06
   6317.0  3.33500e+06
   6318.0  3.33674e+06
   6319.0  3.33848e+06
   6320.0  3.34021e+06
   6321.0  3.34195e+06
   6322.0  3.34369e+06
   6323.0  3.34543e+06
   6324.0  3.34717e+06
   6325.0  3.34891e+06
   6326.0  3.35065e+06
   6327.0  3.35240e+06
   6328.0  3.35414e+06
   6329.0  3.35588e+06
   6330.0  3.35763e+06
   6331.0  3.35937e+06
   6332.0  3.36112e+06
   6333.0  3.36286e+06
   6334.0  3.36461e+06
   6335.0  3.36636e+06
   6336.0  3.36811e+06
   6337.0  3.36986e+06
   6338.0  3.37161e+06
   6339.0  3.37336e+06
   6340.0  3.37511e+06
   6341.0  3.37686e+06
   6342.0  3.37861e+06
   6343.0  3.38037e+06
   6344.0  3.38212e+06
   6345.0  3.38387e+06
   6346.0  3.38563e+06
   6347.0  3.38739e+06
   6348.0  3.38914e+06
   6349.0  3.39090e+06
   6350.0  3.39266e+06
   6351.0  3.39442e+06
   6352.0  3.39617e+06
   6353.0  3.39793e+06
   6354.0  3.39969e+06
   6355.0  3.40146e+06
   6356.0  3.40322e+06
   6357.0  3.40498e+06
   6358.0  3.40674e+06
   6359.0  3.40851e+06
   6360.0  3.41027e+06
   6361.0  3.41204e+06
   6362.0  3.41380e+06
   6363.0  3.41557e+06
   6364.0  3.41734e+06
   6365.0  3.41910e+06
   6366.0  3.42087e+06
   6367.0  3.42264e+06
   6368.0  3.42441e+06
   6369.0  3.42618e+06
   6370.0  3.42795e+06
   6371.0  3.42973e+06
   6372.0  3.43150e+06
   6373.0  3.43327e+06
   6374.0  3.43504e+06
   6375.0  3.43682e+06
   6376.0  3.43859e+06
   6377.0  3.44037e+06
   6378.0  3.44215e+06
   6379.0  3.44392e+06
   6380.0  3.44570e+06
   6381.0  3.44748e+06
   6382.0  3.44926e+06
   6383.0  3.45104e+06
   6384.0  3.45282e+06
   6385.0  3.45460e+06
   6386.0  3.45638e+06
   6387.0  3.45817e+06
   6388.0  3.45995e+06
   6389.0  3.46173e+06
   6390.0  3.46352e+06
   6391.0  3.46530e+06
   6392.0  3.46709e+06
   6393.0  3.46888e+06
   6394.0  3.47066e+06
   6395.0  3.47245e+06
   6396.0  3.47424e+06
   6397.0  3.47603e+06
   6398.0  3.47782e+06
   6399.0  3.47961e+06
   6400.0  3.48140e+06
   6401.0  3.48319e+06
   6402.0  3.48499e+06
   6403.0  3.48678e+06
   6404.0  3.48857e+06
   6405.0  3.49037e+06
   6406.0  3.49216e+06
   6407.0  3.49396e+06
   6408.0  3.49576e+06
   6409.0  3.49756e+06
   6410.0  3.49935e+06
   6411.0  3.50115e+06
   6412.0  3.50295e+06
   6413.0  3.50475e+06
   6414.0  3.50655e+06
   6415.0  3.50835e+06
   6416.0  3.51016e+06
   6417.0  3.51196e+06
   6418.0  3.51376e+06
   6419.0  3.51557e+06
   6420.0  3.51737e+06
   6421.0  3.51918e+06
   6422.0  3.52098e+06
   6423.0  3.52279e+06
   6424.0  3.52460e+06
   6425.0  3.52641e+06
   6426.0  3.52822e+06
   6427.0  3.53003e+06
   6428.0  3.53184e+06
   6429.0  3.53365e+06
   6430.0  3.53546e+06
   6431.0  3.53727e+06
   6432.0  3.53908e+06
   6433.0  3.54090e+06
   6434.0  3.54271e+06
   6435.0  3.54453e+06
   6436.0  3.54634e+06
   6437.0  3.54816e+06
   6438.0  3.54998e+06
   6439.0  3.55180e+06
   6440.0  3.55361e+06
   6441.0  3.55543e+06
   6442.0  3.55725e+06
   6443.0  3.55907e+06
   6444.0  3.56089e+06
   6445.0  3.56272e+06
   6446.0  3.56454e+06
   6447.0  3.56636e+06
   6448.0  3.56819e+06
   6449.0  3.57001e+06
   6450.0  3.57184e+06
   6451.0  3.57366e+06
   6452.0  3.57549e+06
   6453.0  3.57732e+06
   6454.0  3.57914e+06
   6455.0  3.58097e+06
   6456.0  3.58280e+06
   6457.0  3.58463e+06
   6458.0  3.58646e+06
   6459.0  3.58829e+06
   6460.0  3.59013e+06
   6461.0  3.59196e+06
   6462.0  3.59379e+06
   6463.0  3.59563e+06
   6464.0  3.59746e+06
   6465.0  3.59930e+06
   6466.0  3.60113e+06
   6467.0  3.60297e+06
   6468.0  3.60481e+06
   6469.0  3.60665e+06
   6470.0  3.60849e+06
   6471.0  3.61033e+06
   6472.0  3.61217e+06
   6473.0  3.61401e+06
   6474.0  3.61585e+06
   6475.0  3.61769e+06
   6476.0  3.61953e+06
   6477.0  3.62138e+06
   6478.0  3.62322e+06
   6479.0  3.62507e+06
   6480.0  3.62691e+06
   6481.0  3.62876e+06
   6482.0  3.63061e+06
   6483.0  3.63245e+06
   6484.0  3.63430e+06
   6485.0  3.63615e+06
   6486.0  3.63800e+06
   6487.0  3.63985e+06
   6488.0  3.64170e+06
   6489.0  3.64356e+06
   6490.0  3.64541e+06
   6491.0  3.64726e+06
   6492.0  3.64912e+06
   6493.0  3.65097e+06
   6494.0  3.65283e+06
   6495.0  3.65468e+06
   6496.0  3.65654e+06
   6497.0  3.65840e+06
   6498.0  3.66026e+06
   6499.0  3.66211e+06
   6500.0  3.66397e+06
   6501.0  3.66583e+06
   6502.0  3.66770e+06
   6503.0  3.66956e+06
   6504.0  3.67142e+06
   6505.0  3.67328e+06
   6506.0  3.67515e+06
   6507.0  3.67701e+06
   6508.0  3.67888e+06
   6509.0  3.68074e+06
   6510.0  3.68261e+06
   6511.0  3.68447e+06
   6512.0  3.68634e+06
   6513.0  3.68821e+06
   6514.0  3.69008e+06
   6515.0  3.69195e+06
   6516.0  3.69382e+06
   6517.0  3.69569e+06
   6518.0  3.69756e+06
   6519.0  3.69944e+06
   6520.0  3.70131e+06
   6521.0  3.70318e+06
   6522.0  3.70506e+06
   6523.0  3.70693e+06
   6524.0  3.70881e+06
   6525.0  3.71069e+06
   6526.0  3.71256e+06
   6527.0  3.71444e+06
   6528.0  3.71632e+06
   6529.0  3.71820e+06
   6530.0  3.72008e+06
   6531.0  3.72196e+06
   6532.0  3.72384e+06
   6533.0  3.72573e+06
   6534.0  3.72761e+06
   6535.0  3.72949e+06
   6536.0  3.73138e+06
   6537.0  3.73326e+06
   6538.0  3.73515e+06
   6539.0  3.73703e+06
   6540.0  3.73892e+06
   6541.0  3.74081e+06
   6542.0  3.74270e+06
   6543.0  3.74459e+06
   6544.0  3.74648e+06
   6545.0  3.74837e+06
   6546.0  3.75026e+06
   6547.0  3.75215e+06
   6548.0  3.75404e+06
   6549.0  3.75594e+06
   6550.0  3.75783e+06
   6551.0  3.75973e+06
   6552.0  3.76162e+06
   6553.0  3.76352e+06
   6554.0  3.76542e+06
   6555.0  3.76731e+06
   6556.0  3.76921e+06
   6557.0  3.77111e+06
   6558.0  3.77301e+06
   6559.0  3.77491e+06
   6560.0  3.77681e+06
   6561.0  3.77871e+06
   6562.0  3.78062e+06
   6563.0  3.78252e+06
   6564.0  3.78442e+06
   6565.0  3.78633e+06
   6566.0  3.78823e+06
   6567.0  3.79014e+06
   6568.0  3.79204e+06
   6569.0  3.79395e+06
   6570.0  3.79586e+06
   6571.0  3.79777e+06
   6572.0  3.79968e+06
   6573.0  3.80159e+06
   6574.0  3.80350e+06
   6575.0  3.80541e+06
   6576.0  3.80732e+06
   6577.0  3.80924e+06
   6578.0  3.81115e+06
   6579.0  3.81306e+06
   6580.0  3.81498e+06
   6581.0  3.81689e+06
   6582.0  3.81881e+06
   6583.0  3.82073e+06
   6584.0  3.82265e+06
   6585.0  3.82456e+06
   6586.0  3.82648e+06
   6587.0  3.82840e+06
   6588.0  3.83032e+06
   6589.0  3.83224e+06
   6590.0  3.83417e+06
   6591.0  3.83609e+06
   6592.0  3.83801e+06
   6593.0  3.83994e+06
   6594.0  3.84186e+06
   6595.0  3.84379e+06
   6596.0  3.84571e+06
   6597.0  3.84764e+06
   6598.0  3.84957e+06
   6599.0  3.85150e+06
   6600.0  3.85343e+06
   6601.0  3.85535e+06
   6602.0  3.85729e+06
   6603.0  3.85922e+06
   6604.0  3.86115e+06
   6605.0  3.86308e+06
   6606.0  3.86501e+06
   6607.0  3.86695e+06
   6608.0  3.86888e+06
   6609.0  3.87082e+06
   6610.0  3.87275e+06
   6611.0  3.87469e+06
   6612.0  3.87663e+06
   6613.0  3.87857e+06
   6614.0  3.88050e+06
   6615.0  3.88244e+06
   6616.0  3.88438e+06
   6617.0  3.88632e+06
   6618.0  3.88827e+06
   6619.0  3.89021e+06
   6620.0  3.89215e+06
   6621.0  3.89410e+06
   6622.0  3.89604e+06
   6623.0  3.89799e+06
   6624.0  3.89993e+06
   6625.0  3.90188e+06
   6626.0  3.90382e+06
   6627.0  3.90577e+06
   6628.0  3.90772e+06
   6629.0  3.90967e+06
   6630.0  3.91162e+06
   6631.0  3.91357e+06
   6632.0  3.91552e+06
   6633.0  3.91747e+06
   6634.0  3.91943e+06
   6635.0  3.92138e+06
   6636.0  3.92334e+06
   6637.0  3.92529e+06
   6638.0  3.92725e+06
   6639.0  3.92920e+06
   6640.0  3.93116e+06
   6641.0  3.93312e+06
   6642.0  3.93508e+06
   6643.0  3.93704e+06
   6644.0  3.93900e+06
   6645.0  3.94096e+06
   6646.0  3.94292e+06
   6647.0  3.94488e+06
   6648.0  3.94684e+06
   6649.0  3.94881e+06
   6650.0  3.95077e+06
   6651.0  3.95273e+06
   6652.0  3.95470e+06
   6653.0  3.95667e+06
   6654.0  3.95863e+06
   6655.0  3.96060e+06
   6656.0  3.96257e+06
   6657.0  3.96454e+06
   6658.0  3.96651e+06
   6659.0  3.96848e+06
   6660.0  3.97045e+06
   6661.0  3.97242e+06
   6662.0  3.97439e+06
   6663.0  3.97637e+06
   6664.0  3.97834e+06
   6665.0  3.98032e+06
   6666.0  3.98229e+06
   6667.0  3.98427e+06
   6668.0  3.98625e+06
   6669.0  3.98822e+06
   6670.0  3.99020e+06
   6671.0  3.99218e+06
   6672.0  3.99416e+06
   6673.0  3.99614e+06
   6674.0  3.99812e+06
   6675.0  4.00010e+06
   6676.0  4.00209e+06
   6677.0  4.00407e+06
   6678.0  4.00605e+06
   6679.0  4.00804e+06
   6680.0  4.01002e+06
   6681.0  4.01201e+06
   6682.0  4.01400e+06
   6683.0  4.01598e+06
   6684.0  4.01797e+06
   6685.0  4.01996e+06
   6686.0  4.02195e+06
   6687.0  4.02394e+06
   6688.0  4.02593e+06
   6689.0  4.02792e+06
   6690.0  4.02992e+06
   6691.0  4.03191e+06
   6692.0  4.03390e+06
   6693.0  4.03590e+06
   6694.0  4.03789e+06
   6695.0  4.03989e+06
   6696.0  4.04189e+06
   6697.0  4.04388e+06
   6698.0  4.04588e+06
   6699.0  4.04788e+06
   6700.0  4.04988e+06
   6701.0  4.05188e+06
   6702.0  4.05388e+06
   6703.0  4.05588e+06
   6704.0  4.05789e+06
   6705.0  4.05989e+06
   6706.0  4.06189e+06
   6707.0  4.06390e+06
   6708.0  4.06590e+06
   6709.0  4.06791e+06
   6710.0  4.06992e+06
   6711.0  4.07192e+06
   6712.0  4.07393e+06
   6713.0  4.07594e+06
   6714.0  4.07795e+06
   6715.0  4.07996e+06
   6716.0  4.08197e+06
   6717.0  4.08398e+06
   6718.0  4.08600e+06
   6719.0  4.08801e+06
   6720.0  4.09002e+06
   6721.0  4.09204e+06
   6722.0  4.09405e+06
   6723.0  4.09607e+06
   6724.0  4.09809e+06
   6725.0  4.10010e+06
   6726.0  4.10212e+06
   6727.0  4.10414e+06
   6728.0  4.10616e+06
   6729.0  4.10818e+06
   6730.0  4.11020e+06
   6731.0  4.11222e+06
   6732.0  4.11425e+06
   6733.0  4.11627e+06
   6734.0  4.11829e+06
   6735.0  4.12032e+06
   6736.0  4.12234e+06
   6737.0  4.12437e+06
   6738.0  4.12640e+06
   6739.0  4.12842e+06
   6740.0  4.13045e+06
   6741.0  4.13248e+06
   6742.0  4.13451e+06
   6743.0  4.13654e+06
   6744.0  4.13857e+06
   6745.0  4.14060e+06
   6746.0  4.14264e+06
   6747.0  4.14467e+06
   6748.0  4.14670e+06
   6749.0  4.14874e+06
   6750.0  4.15077e+06
   6751.0  4.15281e+06
   6752.0  4.15485e+06
   6753.0  4.15688e+06
   6754.0  4.15892e+06
   6755.0  4.16096e+06
   6756.0  4.16300e+06
   6757.0  4.16504e+06
   6758.0  4.16708e+06
   6759.0  4.16912e+06
   6760.0  4.17117e+06
   6761.0  4.17321e+06
   6762.0  4.17525e+06
   6763.0  4.17730e+06
   6764.0  4.17935e+06
   6765.0  4.18139e+06
   6766.0  4.18344e+06
   6767.0  4.18549e+06
   6768.0  4.18753e+06
   6769.0  4.18958e+06
   6770.0  4.19163e+06
   6771.0  4.19368e+06
   6772.0  4.19573e+06
   6773.0  4.19779e+06
   6774.0  4.19984e+06
   6775.0  4.20189e+06
   6776.0  4.20395e+06
   6777.0  4.20600e+06
   6778.0  4.20806e+06
   6779.0  4.21011e+06
   6780.0  4.21217e+06
   6781.0  4.21423e+06
   6782.0  4.21629e+06
   6783.0  4.21835e+06
   6784.0  4.22041e+06
   6785.0  4.22247e+06
   6786.0  4.22453e+06
   6787.0  4.22659e+06
   6788.0  4.22865e+06
   6789.0  4.23072e+06
   6790.0  4.23278e+06
   6791.0  4.23485e+06
   6792.0  4.23691e+06
   6793.0  4.23898e+06
   6794.0  4.24105e+06
   6795.0  4.24311e+06
   6796.0  4.24518e+06
   6797.0  4.24725e+06
   6798.0  4.24932e+06
   6799.0  4.25139e+06
   6800.0  4.25346e+06
   6801.0  4.25554e+06
   6802.0  4.25761e+06
   6803.0  4.25968e+06
   6804.0  4.26176e+06
   6805.0  4.26383e+06
   6806.0  4.26591e+06
   6807.0  4.26798e+06
   6808.0  4.27006e+06
   6809.0  4.27214e+06
   6810.0  4.27422e+06
   6811.0  4.27630e+06
   6812.0  4.27838e+06
   6813.0  4.28046e+06
   6814.0  4.28254e+06
   6815.0  4.28462e+06
   6816.0  4.28671e+06
   6817.0  4.28879e+06
   6818.0  4.29087e+06
   6819.0  4.29296e+06
   6820.0  4.29505e+06
   6821.0  4.29713e+06
   6822.0  4.29922e+06
   6823.0  4.30131e+06
   6824.0  4.30340e+06
   6825.0  4.30549e+06
   6826.0  4.30758e+06
   6827.0  4.30967e+06
   6828.0  4.31176e+06
   6829.0  4.31385e+06
   6830.0  4.31595e+06
   6831.0  4.31804e+06
   6832.0  4.32013e+06
   6833.0  4.32223e+06
   6834.0  4.32433e+06
   6835.0  4.32642e+06
   6836.0  4.32852e+06
   6837.0  4.33062e+06
   6838.0  4.33272e+06
   6839.0  4.33482e+06
   6840.0  4.33692e+06
   6841.0  4.33902e+06
   6842.0  4.34112e+06
   6843.0  4.34323e+06
   6844.0  4.34533e+06
   6845.0  4.34743e+06
   6846.0  4.34954e+06
   6847.0  4.35164e+06
   6848.0  4.35375e+06
   6849.0  4.35586e+06
   6850.0  4.35797e+06
   6851.0  4.36007e+06
   6852.0  4.36218e+06
   6853.0  4.36429e+06
   6854.0  4.36640e+06
   6855.0  4.36852e+06
   6856.0  4.37063e+06
   6857.0  4.37274e+06
   6858.0  4.37485e+06
   6859.0  4.37697e+06
   6860.0  4.37908e+06
   6861.0  4.38120e+06
   6862.0  4.38332e+06
   6863.0  4.38543e+06
   6864.0  4.38755e+06
   6865.0  4.38967e+06
   6866.0  4.39179e+06
   6867.0  4.39391e+06
   6868.0  4.39603e+06
   6869.0  4.39815e+06
   6870.0  4.40028e+06
   6871.0  4.40240e+06
   6872.0  4.40452e+06
   6873.0  4.40665e+06
   6874.0  4.40877e+06
   6875.0  4.41090e+06
   6876.0  4.41303e+06
   6877.0  4.41515e+06
   6878.0  4.41728e+06
   6879.0  4.41941e+06
   6880.0  4.42154e+06
   6881.0  4.42367e+06
   6882.0  4.42580e+06
   6883.0  4.42794e+06
   6884.0  4.43007e+06
   6885.0  4.43220e+06
   6886.0  4.43434e+06
   6887.0  4.43647e+06
   6888.0  4.43861e+06
   6889.0  4.44074e+06
   6890.0  4.44288e+06
   6891.0  4.44502e+06
   6892.0  4.44716e+06
   6893.0  4.44930e+06
   6894.0  4.45144e+06
   6895.0  4.45358e+06
   6896.0  4.45572e+06
   6897.0  4.45786e+06
   6898.0  4.46001e+06
   6899.0  4.46215e+06
   6900.0  4.46429e+06
   6901.0  4.46644e+06
   6902.0  4.46858e+06
   6903.0  4.47073e+06
   6904.0  4.47288e+06
   6905.0  4.47503e+06
   6906.0  4.47718e+06
   6907.0  4.47933e+06
   6908.0  4.48148e+06
   6909.0  4.48363e+06
   6910.0  4.48578e+06
   6911.0  4.48793e+06
   6912.0  4.49009e+06
   6913.0  4.49224e+06
   6914.0  4.49439e+06
   6915.0  4.49655e+06
   6916.0  4.49871e+06
   6917.0  4.50086e+06
   6918.0  4.50302e+06
   6919.0  4.50518e+06
   6920.0  4.50734e+06
   6921.0  4.50950e+06
   6922.0  4.51166e+06
   6923.0  4.51382e+06
   6924.0  4.51598e+06
   6925.0  4.51815e+06
   6926.0  4.52031e+06
   6927.0  4.52248e+06
   6928.0  4.52464e+06
   6929.0  4.52681e+06
   6930.0  4.52897e+06
   6931.0  4.53114e+06
   6932.0  4.53331e+06
   6933.0  4.53548e+06
   6934.0  4.53765e+06
   6935.0  4.53982e+06
   6936.0  4.54199e+06
   6937.0  4.54416e+06
   6938.0  4.54633e+06
   6939.0  4.54851e+06
   6940.0  4.55068e+06
   6941.0  4.55286e+06
   6942.0  4.55503e+06
   6943.0  4.55721e+06
   6944.0  4.55938e+06
   6945.0  4.56156e+06
   6946.0  4.56374e+06
   6947.0  4.56592e+06
   6948.0  4.56810e+06
   6949.0  4.57028e+06
   6950.0  4.57246e+06
   6951.0  4.57465e+06
   6952.0  4.57683e+06
   6953.0  4.57901e+06
   6954.0  4.58120e+06
   6955.0  4.58338e+06
   6956.0  4.58557e+06
   6957.0  4.58775e+06
   6958.0  4.58994e+06
   6959.0  4.59213e+06
   6960.0  4.59432e+06
   6961.0  4.59651e+06
   6962.0  4.59870e+06
   6963.0  4.60089e+06
   6964.0  4.60308e+06
   6965.0  4.60527e+06
   6966.0  4.60747e+06
   6967.0  4.60966e+06
   6968.0  4.61186e+06
   6969.0  4.61405e+06
   6970.0  4.61625e+06
   6971.0  4.61845e+06
   6972.0  4.62064e+06
   6973.0  4.62284e+06
   6974.0  4.62504e+06
   6975.0  4.62724e+06
   6976.0  4.62944e+06
   6977.0  4.63164e+06
   6978.0  4.63385e+06
   6979.0  4.63605e+06
   6980.0  4.63825e+06
   6981.0  4.64046e+06
   6982.0  4.64266e+06
   6983.0  4.64487e+06
   6984.0  4.64708e+06
   6985.0  4.64928e+06
   6986.0  4.65149e+06
   6987.0  4.65370e+06
   6988.0  4.65591e+06
   6989.0  4.65812e+06
   6990.0  4.66033e+06
   6991.0  4.66255e+06
   6992.0  4.66476e+06
   6993.0  4.66697e+06
   6994.0  4.66919e+06
   6995.0  4.67140e+06
   6996.0  4.67362e+06
   6997.0  4.67583e+06
   6998.0  4.67805e+06
   6999.0  4.68027e+06
   7000.0  4.68249e+06
   7001.0  4.68471e+06
   7002.0  4.68693e+06
   7003.0  4.68915e+06
   7004.0  4.69137e+06
   7005.0  4.69359e+06
   7006.0  4.69582e+06
   7007.0  4.69804e+06
   7008.0  4.70026e+06
   7009.0  4.70249e+06
   7010.0  4.70472e+06
   7011.0  4.70694e+06
   7012.0  4.70917e+06
   7013.0  4.71140e+06
   7014.0  4.71363e+06
   7015.0  4.71586e+06
   7016.0  4.71809e+06
   7017.0  4.72032e+06
   7018.0  4.72255e+06
   7019.0  4.72479e+06
   7020.0  4.72702e+06
   7021.0  4.72926e+06
   7022.0  4.73149e+06
   7023.0  4.73373e+06
   7024.0  4.73596e+06
   7025.0  4.73820e+06
   7026.0  4.74044e+06
   7027.0  4.74268e+06
   7028.0  4.74492e+06
   7029.0  4.74716e+06
   7030.0  4.74940e+06
   7031.0  4.75164e+06
   7032.0  4.75388e+06
   7033.0  4.75613e+06
   7034.0  4.75837e+06
   7035.0  4.76062e+06
   7036.0  4.76286e+06
   7037.0  4.76511e+06
   7038.0  4.76736e+06
   7039.0  4.76960e+06
   7040.0  4.77185e+06
   7041.0  4.77410e+06
   7042.0  4.77635e+06
   7043.0  4.77860e+06
   7044.0  4.78086e+06
   7045.0  4.78311e+06
   7046.0  4.78536e+06
   7047.0  4.78762e+06
   7048.0  4.78987e+06
   7049.0  4.79213e+06
   7050.0  4.79438e+06
   7051.0  4.79664e+06
   7052.0  4.79890e+06
   7053.0  4.80116e+06
   7054.0  4.80342e+06
   7055.0  4.80568e+06
   7056.0  4.80794e+06
   7057.0  4.81020e+06
   7058.0  4.81246e+06
   7059.0  4.81472e+06
   7060.0  4.81699e+06
   7061.0  4.81925e+06
   7062.0  4.82152e+06
   7063.0  4.82378e+06
   7064.0  4.82605e+06
   7065.0  4.82832e+06
   7066.0  4.83059e+06
   7067.0  4.83286e+06
   7068.0  4.83513e+06
   7069.0  4.83740e+06
   7070.0  4.83967e+06
   7071.0  4.84194e+06
   7072.0  4.84421e+06
   7073.0  4.84649e+06
   7074.0  4.84876e+06
   7075.0  4.85104e+06
   7076.0  4.85331e+06
   7077.0  4.85559e+06
   7078.0  4.85787e+06
   7079.0  4.86014e+06
   7080.0  4.86242e+06
   7081.0  4.86470e+06
   7082.0  4.86698e+06
   7083.0  4.86926e+06
   7084.0  4.87155e+06
   7085.0  4.87383e+06
   7086.0  4.87611e+06
   7087.0  4.87840e+06
   7088.0  4.88068e+06
   7089.0  4.88297e+06
   7090.0  4.88525e+06
   7091.0  4.88754e+06
   7092.0  4.88983e+06
   7093.0  4.89212e+06
   7094.0  4.89441e+06
   7095.0  4.89670e+06
   7096.0  4.89899e+06
   7097.0  4.90128e+06
   7098.0  4.90357e+06
   7099.0  4.90587e+06
   7100.0  4.90816e+06
   7101.0  4.91046e+06
   7102.0  4.91275e+06
   7103.0  4.91505e+06
   7104.0  4.91735e+06
   7105.0  4.91964e+06
   7106.0  4.92194e+06
   7107.0  4.92424e+06
   7108.0  4.92654e+06
   7109.0  4.92884e+06
   7110.0  4.93114e+06
   7111.0  4.93345e+06
   7112.0  4.93575e+06
   7113.0  4.93805e+06
   7114.0  4.94036e+06
   7115.0  4.94266e+06
   7116.0  4.94497e+06
   7117.0  4.94728e+06
   7118.0  4.94959e+06
   7119.0  4.95189e+06
   7120.0  4.95420e+06
   7121.0  4.95651e+06
   7122.0  4.95882e+06
   7123.0  4.96114e+06
   7124.0  4.96345e+06
   7125.0  4.96576e+06
   7126.0  4.96808e+06
   7127.0  4.97039e+06
   7128.0  4.97271e+06
   7129.0  4.97502e+06
   7130.0  4.97734e+06
   7131.0  4.97966e+06
   7132.0  4.98197e+06
   7133.0  4.98429e+06
   7134.0  4.98661e+06
   7135.0  4.98893e+06
   7136.0  4.99126e+06
   7137.0  4.99358e+06
   7138.0  4.99590e+06
   7139.0  4.99823e+06
   7140.0  5.00055e+06
   7141.0  5.00288e+06
   7142.0  5.00520e+06
   7143.0  5.00753e+06
   7144.0  5.00986e+06
   7145.0  5.01218e+06
   7146.0  5.01451e+06
   7147.0  5.01684e+06
   7148.0  5.01917e+06
   7149.0  5.02151e+06
   7150.0  5.02384e+06
   7151.0  5.02617e+06
   7152.0  5.02850e+06
   7153.0  5.03084e+06
   7154.0  5.03317e+06
   7155.0  5.03551e+06
   7156.0  5.03785e+06
   7157.0  5.04018e+06
   7158.0  5.04252e+06
   7159.0  5.04486e+06
   7160.0  5.04720e+06
   7161.0  5.04954e+06
   7162.0  5.05188e+06
   7163.0  5.05423e+06
   7164.0  5.05657e+06
   7165.0  5.05891e+06
   7166.0  5.06126e+06
   7167.0  5.06360e+06
   7168.0  5.06595e+06
   7169.0  5.06829e+06
   7170.0  5.07064e+06
   7171.0  5.07299e+06
   7172.0  5.07534e+06
   7173.0  5.07769e+06
   7174.0  5.08004e+06
   7175.0  5.08239e+06
   7176.0  5.08474e+06
   7177.0  5.08710e+06
   7178.0  5.08945e+06
   7179.0  5.09180e+06
   7180.0  5.09416e+06
   7181.0  5.09652e+06
   7182.0  5.09887e+06
   7183.0  5.10123e+06
   7184.0  5.10359e+06
   7185.0  5.10595e+06
   7186.0  5.10831e+06
   7187.0  5.11067e+06
   7188.0  5.11303e+06
   7189.0  5.11539e+06
   7190.0  5.11775e+06
   7191.0  5.12012e+06
   7192.0  5.12248e+06
   7193.0  5.12485e+06
   7194.0  5.12721e+06
   7195.0  5.12958e+06
   7196.0  5.13195e+06
   7197.0  5.13432e+06
   7198.0  5.13668e+06
   7199.0  5.13905e+06
   7200.0  5.14143e+06
   7201.0  5.14380e+06
   7202.0  5.14617e+06
   7203.0  5.14854e+06
   7204.0  5.15092e+06
   7205.0  5.15329e+06
   7206.0  5.15566e+06
   7207.0  5.15804e+06
   7208.0  5.16042e+06
   7209.0  5.16279e+06
   7210.0  5.16517e+06
   7211.0  5.16755e+06
   7212.0  5.16993e+06
   7213.0  5.17231e+06
   7214.0  5.17469e+06
   7215.0  5.17708e+06
   7216.0  5.17946e+06
   7217.0  5.18184e+06
   7218.0  5.18423e+06
   7219.0  5.18661e+06
   7220.0  5.18900e+06
   7221.0  5.19139e+06
   7222.0  5.19377e+06
   7223.0  5.19616e+06
   7224.0  5.19855e+06
   7225.0  5.20094e+06
   7226.0  5.20333e+06
   7227.0  5.20572e+06
   7228.0  5.20811e+06
   7229.0  5.21051e+06
   7230.0  5.21290e+06
   7231.0  5.21530e+06
   7232.0  5.21769e+06
   7233.0  5.22009e+06
   7234.0  5.22248e+06
   7235.0  5.22488e+06
   7236.0  5.22728e+06
   7237.0  5.22968e+06
   7238.0  5.23208e+06
   7239.0  5.23448e+06
   7240.0  5.23688e+06
   7241.0  5.23928e+06
   7242.0  5.24169e+06
   7243.0  5.24409e+06
   7244.0  5.24649e+06
   7245.0  5.24890e+06
   7246.0  5.25131e+06
   7247.0  5.25371e+06
   7248.0  5.25612e+06
   7249.0  5.25853e+06
   7250.0  5.26094e+06
   7251.0  5.26335e+06
   7252.0  5.26576e+06
   7253.0  5.26817e+06
   7254.0  5.27058e+06
   7255.0  5.27300e+06
   7256.0  5.27541e+06
   7257.0  5.27782e+06
   7258.0  5.28024e+06
   7259.0  5.28266e+06
   7260.0  5.28507e+06
   7261.0  5.28749e+06
   7262.0  5.28991e+06
   7263.0  5.29233e+06
   7264.0  5.29475e+06
   7265.0  5.29717e+06
   7266.0  5.29959e+06
   7267.0  5.30201e+06
   7268.0  5.30444e+06
   7269.0  5.30686e+06
   7270.0  5.30928e+06
   7271.0  5.31171e+06
   7272.0  5.31414e+06
   7273.0  5.31656e+06
   7274.0  5.31899e+06
   7275.0  5.32142e+06
   7276.0  5.32385e+06
   7277.0  5.32628e+06
   7278.0  5.32871e+06
   7279.0  5.33114e+06
   7280.0  5.33357e+06
   7281.0  5.33601e+06
   7282.0  5.33844e+06
   7283.0  5.34088e+06
   7284.0  5.34331e+06
   7285.0  5.34575e+06
   7286.0  5.34819e+06
   7287.0  5.35062e+06
   7288.0  5.35306e+06
   7289.0  5.35550e+06
   7290.0  5.35794e+06
   7291.0  5.36038e+06
   7292.0  5.36283e+06
   7293.0  5.36527e+06
   7294.0  5.36771e+06
   7295.0  5.37016e+06
   7296.0  5.37260e+06
   7297.0  5.37505e+06
   7298.0  5.37749e+06
   7299.0  5.37994e+06
   7300.0  5.38239e+06
   7301.0  5.38484e+06
   7302.0  5.38729e+06
   7303.0  5.38974e+06
   7304.0  5.39219e+06
   7305.0  5.39464e+06
   7306.0  5.39709e+06
   7307.0  5.39955e+06
   7308.0  5.40200e+06
   7309.0  5.40446e+06
   7310.0  5.40691e+06
   7311.0  5.40937e+06
   7312.0  5.41183e+06
   7313.0  5.41428e+06
   7314.0  5.41674e+06
   7315.0  5.41920e+06
   7316.0  5.42166e+06
   7317.0  5.42413e+06
   7318.0  5.42659e+06
   7319.0  5.42905e+06
   7320.0  5.43151e+06
   7321.0  5.43398e+06
   7322.0  5.43644e+06
   7323.0  5.43891e+06
   7324.0  5.44138e+06
   7325.0  5.44384e+06
   7326.0  5.44631e+06
   7327.0  5.44878e+06
   7328.0  5.45125e+06
   7329.0  5.45372e+06
   7330.0  5.45619e+06
   7331.0  5.45867e+06
   7332.0  5.46114e+06
   7333.0  5.46361e+06
   7334.0  5.46609e+06
   7335.0  5.46856e+06
   7336.0  5.47104e+06
   7337.0  5.47352e+06
   7338.0  5.47600e+06
   7339.0  5.47847e+06
   7340.0  5.48095e+06
   7341.0  5.48343e+06
   7342.0  5.48591e+06
   7343.0  5.48840e+06
   7344.0  5.49088e+06
   7345.0  5.49336e+06
   7346.0  5.49585e+06
   7347.0  5.49833e+06
   7348.0  5.50082e+06
   7349.0  5.50330e+06
   7350.0  5.50579e+06
   7351.0  5.50828e+06
   7352.0  5.51077e+06
   7353.0  5.51326e+06
   7354.0  5.51575e+06
   7355.0  5.51824e+06
   7356.0  5.52073e+06
   7357.0  5.52322e+06
   7358.0  5.52572e+06
   7359.0  5.52821e+06
   7360.0  5.53071e+06
   7361.0  5.53320e+06
   7362.0  5.53570e+06
   7363.0  5.53820e+06
   7364.0  5.54069e+06
   7365.0  5.54319e+06
   7366.0  5.54569e+06
   7367.0  5.54819e+06
   7368.0  5.55070e+06
   7369.0  5.55320e+06
   7370.0  5.55570e+06
   7371.0  5.55820e+06
   7372.0  5.56071e+06
   7373.0  5.56321e+06
   7374.0  5.56572e+06
   7375.0  5.56823e+06
   7376.0  5.57073e+06
   7377.0  5.57324e+06
   7378.0  5.57575e+06
   7379.0  5.57826e+06
   7380.0  5.58077e+06
   7381.0  5.58328e+06
   7382.0  5.58580e+06
   7383.0  5.58831e+06
   7384.0  5.59082e+06
   7385.0  5.59334e+06
   7386.0  5.59586e+06
   7387.0  5.59837e+06
   7388.0  5.60089e+06
   7389.0  5.60341e+06
   7390.0  5.60593e+06
   7391.0  5.60844e+06
   7392.0  5.61097e+06
   7393.0  5.61349e+06
   7394.0  5.61601e+06
   7395.0  5.61853e+06
   7396.0  5.62105e+06
   7397.0  5.62358e+06
   7398.0  5.62610e+06
   7399.0  5.62863e+06
   7400.0  5.63116e+06
   7401.0  5.63368e+06
   7402.0  5.63621e+06
   7403.0  5.63874e+06
   7404.0  5.64127e+06
   7405.0  5.64380e+06
   7406.0  5.64633e+06
   7407.0  5.64886e+06
   7408.0  5.65140e+06
   7409.0  5.65393e+06
   7410.0  5.65647e+06
   7411.0  5.65900e+06
   7412.0  5.66154e+06
   7413.0  5.66407e+06
   7414.0  5.66661e+06
   7415.0  5.66915e+06
   7416.0  5.67169e+06
   7417.0  5.67423e+06
   7418.0  5.67677e+06
   7419.0  5.67931e+06
   7420.0  5.68186e+06
   7421.0  5.68440e+06
   7422.0  5.68694e+06
   7423.0  5.68949e+06
   7424.0  5.69203e+06
   7425.0  5.69458e+06
   7426.0  5.69713e+06
   7427.0  5.69968e+06
   7428.0  5.70222e+06
   7429.0  5.70477e+06
   7430.0  5.70732e+06
   7431.0  5.70988e+06
   7432.0  5.71243e+06
   7433.0  5.71498e+06
   7434.0  5.71753e+06
   7435.0  5.72009e+06
   7436.0  5.72264e+06
   7437.0  5.72520e+06
   7438.0  5.72776e+06
   7439.0  5.73031e+06
   7440.0  5.73287e+06
   7441.0  5.73543e+06
   7442.0  5.73799e+06
   7443.0  5.74055e+06
   7444.0  5.74311e+06
   7445.0  5.74568e+06
   7446.0  5.74824e+06
   7447.0  5.75080e+06
   7448.0  5.75337e+06
   7449.0  5.75593e+06
   7450.0  5.75850e+06
   7451.0  5.76107e+06
   7452.0  5.76363e+06
   7453.0  5.76620e+06
   7454.0  5.76877e+06
   7455.0  5.77134e+06
   7456.0  5.77391e+06
   7457.0  5.77649e+06
   7458.0  5.77906e+06
   7459.0  5.78163e+06
   7460.0  5.78421e+06
   7461.0  5.78678e+06
   7462.0  5.78936e+06
   7463.0  5.79193e+06
   7464.0  5.79451e+06
   7465.0  5.79709e+06
   7466.0  5.79967e+06
   7467.0  5.80225e+06
   7468.0  5.80483e+06
   7469.0  5.80741e+06
   7470.0  5.80999e+06
   7471.0  5.81258e+06
   7472.0  5.81516e+06
   7473.0  5.81774e+06
   7474.0  5.82033e+06
   7475.0  5.82292e+06
   7476.0  5.82550e+06
   7477.0  5.82809e+06
   7478.0  5.83068e+06
   7479.0  5.83327e+06
   7480.0  5.83586e+06
   7481.0  5.83845e+06
   7482.0  5.84104e+06
   7483.0  5.84363e+06
   7484.0  5.84623e+06
   7485.0  5.84882e+06
   7486.0  5.85142e+06
   7487.0  5.85401e+06
   7488.0  5.85661e+06
   7489.0  5.85921e+06
   7490.0  5.86180e+06
   7491.0  5.86440e+06
   7492.0  5.86700e+06
   7493.0  5.86960e+06
   7494.0  5.87221e+06
   7495.0  5.87481e+06
   7496.0  5.87741e+06
   7497.0  5.88001e+06
   7498.0  5.88262e+06
   7499.0  5.88522e+06
   7500.0  5.88783e+06
   7501.0  5.89044e+06
   7502.0  5.89305e+06
   7503.0  5.89565e+06
   7504.0  5.89826e+06
   7505.0  5.90087e+06
   7506.0  5.90349e+06
   7507.0  5.90610e+06
   7508.0  5.90871e+06
   7509.0  5.91132e+06
   7510.0  5.91394e+06
   7511.0  5.91655e+06
   7512.0  5.91917e+06
   7513.0  5.92178e+06
   7514.0  5.92440e+06
   7515.0  5.92702e+06
   7516.0  5.92964e+06
   7517.0  5.93226e+06
   7518.0  5.93488e+06
   7519.0  5.93750e+06
   7520.0  5.94012e+06
   7521.0  5.94275e+06
   7522.0  5.94537e+06
   7523.0  5.94800e+06
   7524.0  5.95062e+06
   7525.0  5.95325e+06
   7526.0  5.95587e+06
   7527.0  5.95850e+06
   7528.0  5.96113e+06
   7529.0  5.96376e+06
   7530.0  5.96639e+06
   7531.0  5.96902e+06
   7532.0  5.97165e+06
   7533.0  5.97429e+06
   7534.0  5.97692e+06
   7535.0  5.97955e+06
   7536.0  5.98219e+06
   7537.0  5.98482e+06
   7538.0  5.98746e+06
   7539.0  5.99010e+06
   7540.0  5.99274e+06
   7541.0  5.99538e+06
   7542.0  5.99802e+06
   7543.0  6.00066e+06
   7544.0  6.00330e+06
   7545.0  6.00594e+06
   7546.0  6.00858e+06
   7547.0  6.01123e+06
   7548.0  6.01387e+06
   7549.0  6.01652e+06
   7550.0  6.01916e+06
   7551.0  6.02181e+06
   7552.0  6.02446e+06
   7553.0  6.02711e+06
   7554.0  6.02976e+06
   7555.0  6.03241e+06
   7556.0  6.03506e+06
   7557.0  6.03771e+06
   7558.0  6.04036e+06
   7559.0  6.04302e+06
   7560.0  6.04567e+06
   7561.0  6.04833e+06
   7562.0  6.05098e+06
   7563.0  6.05364e+06
   7564.0  6.05630e+06
   7565.0  6.05896e+06
   7566.0  6.06162e+06
   7567.0  6.06428e+06
   7568.0  6.06694e+06
   7569.0  6.06960e+06
   7570.0  6.07226e+06
   7571.0  6.07492e+06
   7572.0  6.07759e+06
   7573.0  6.08025e+06
   7574.0  6.08292e+06
   7575.0  6.08559e+06
   7576.0  6.08825e+06
   7577.0  6.09092e+06
   7578.0  6.09359e+06
   7579.0  6.09626e+06
   7580.0  6.09893e+06
   7581.0  6.10160e+06
   7582.0  6.10427e+06
   7583.0  6.10695e+06
   7584.0  6.10962e+06
   7585.0  6.11230e+06
   7586.0  6.11497e+06
   7587.0  6.11765e+06
   7588.0  6.12032e+06
   7589.0  6.12300e+06
   7590.0  6.12568e+06
   7591.0  6.12836e+06
   7592.0  6.13104e+06
   7593.0  6.13372e+06
   7594.0  6.13640e+06
   7595.0  6.13909e+06
   7596.0  6.14177e+06
   7597.0  6.14445e+06
   7598.0  6.14714e+06
   7599.0  6.14983e+06
   7600.0  6.15251e+06
   7601.0  6.15520e+06
   7602.0  6.15789e+06
   7603.0  6.16058e+06
   7604.0  6.16327e+06
   7605.0  6.16596e+06
   7606.0  6.16865e+06
   7607.0  6.17134e+06
   7608.0  6.17404e+06
   7609.0  6.17673e+06
   7610.0  6.17942e+06
   7611.0  6.18212e+06
   7612.0  6.18482e+06
   7613.0  6.18751e+06
   7614.0  6.19021e+06
   7615.0  6.19291e+06
   7616.0  6.19561e+06
   7617.0  6.19831e+06
   7618.0  6.20101e+06
   7619.0  6.20371e+06
   7620.0  6.20642e+06
   7621.0  6.20912e+06
   7622.0  6.21183e+06
   7623.0  6.21453e+06
   7624.0  6.21724e+06
   7625.0  6.21994e+06
   7626.0  6.22265e+06
   7627.0  6.22536e+06
   7628.0  6.22807e+06
   7629.0  6.23078e+06
   7630.0  6.23349e+06
   7631.0  6.23620e+06
   7632.0  6.23892e+06
   7633.0  6.24163e+06
   7634.0  6.24434e+06
   7635.0  6.24706e+06
   7636.0  6.24978e+06
   7637.0  6.25249e+06
   7638.0  6.25521e+06
   7639.0  6.25793e+06
   7640.0  6.26065e+06
   7641.0  6.26337e+06
   7642.0  6.26609e+06
   7643.0  6.26881e+06
   7644.0  6.27153e+06
   7645.0  6.27426e+06
   7646.0  6.27698e+06
   7647.0  6.27970e+06
   7648.0  6.28243e+06
   7649.0  6.28516e+06
   7650.0  6.28788e+06
   7651.0  6.29061e+06
   7652.0  6.29334e+06
   7653.0  6.29607e+06
   7654.0  6.29880e+06
   7655.0  6.30153e+06
   7656.0  6.30427e+06
   7657.0  6.30700e+06
   7658.0  6.30973e+06
   7659.0  6.31247e+06
   7660.0  6.31520e+06
   7661.0  6.31794e+06
   7662.0  6.32068e+06
   7663.0  6.32341e+06
   7664.0  6.32615e+06
   7665.0  6.32889e+06
   7666.0  6.33163e+06
   7667.0  6.33437e+06
   7668.0  6.33712e+06
   7669.0  6.33986e+06
   7670.0  6.34260e+06
   7671.0  6.34535e+06
   7672.0  6.34809e+06
   7673.0  6.35084e+06
   7674.0  6.35359e+06
   7675.0  6.35633e+06
   7676.0  6.35908e+06
   7677.0  6.36183e+06
   7678.0  6.36458e+06
   7679.0  6.36733e+06
   7680.0  6.37009e+06
   7681.0  6.37284e+06
   7682.0  6.37559e+06
   7683.0  6.37835e+06
   7684.0  6.38110e+06
   7685.0  6.38386e+06
   7686.0  6.38661e+06
   7687.0  6.38937e+06
   7688.0  6.39213e+06
   7689.0  6.39489e+06
   7690.0  6.39765e+06
   7691.0  6.40041e+06
   7692.0  6.40317e+06
   7693.0  6.40593e+06
   7694.0  6.40870e+06
   7695.0  6.41146e+06
   7696.0  6.41423e+06
   7697.0  6.41699e+06
   7698.0  6.41976e+06
   7699.0  6.42253e+06
   7700.0  6.42529e+06
   7701.0  6.42806e+06
   7702.0  6.43083e+06
   7703.0  6.43360e+06
   7704.0  6.43638e+06
   7705.0  6.43915e+06
   7706.0  6.44192e+06
   7707.0  6.44469e+06
   7708.0  6.44747e+06
   7709.0  6.45025e+06
   7710.0  6.45302e+06
   7711.0  6.45580e+06
   7712.0  6.45858e+06
   7713.0  6.46136e+06
   7714.0  6.46414e+06
   7715.0  6.46692e+06
   7716.0  6.46970e+06
   7717.0  6.47248e+06
   7718.0  6.47526e+06
   7719.0  6.47805e+06
   7720.0  6.48083e+06
   7721.0  6.48362e+06
   7722.0  6.48640e+06
   7723.0  6.48919e+06
   7724.0  6.49198e+06
   7725.0  6.49477e+06
   7726.0  6.49756e+06
   7727.0  6.50035e+06
   7728.0  6.50314e+06
   7729.0  6.50593e+06
   7730.0  6.50872e+06
   7731.0  6.51152e+06
   7732.0  6.51431e+06
   7733.0  6.51711e+06
   7734.0  6.51990e+06
   7735.0  6.52270e+06
   7736.0  6.52550e+06
   7737.0  6.52830e+06
   7738.0  6.53110e+06
   7739.0  6.53390e+06
   7740.0  6.53670e+06
   7741.0  6.53950e+06
   7742.0  6.54230e+06
   7743.0  6.54510e+06
   7744.0  6.54791e+06
   7745.0  6.55071e+06
   7746.0  6.55352e+06
   7747.0  6.55633e+06
   7748.0  6.55913e+06
   7749.0  6.56194e+06
   7750.0  6.56475e+06
   7751.0  6.56756e+06
   7752.0  6.57037e+06
   7753.0  6.57319e+06
   7754.0  6.57600e+06
   7755.0  6.57881e+06
   7756.0  6.58163e+06
   7757.0  6.58444e+06
   7758.0  6.58726e+06
   7759.0  6.59007e+06
   7760.0  6.59289e+06
   7761.0  6.59571e+06
   7762.0  6.59853e+06
   7763.0  6.60135e+06
   7764.0  6.60417e+06
   7765.0  6.60699e+06
   7766.0  6.60981e+06
   7767.0  6.61264e+06
   7768.0  6.61546e+06
   7769.0  6.61829e+06
   7770.0  6.62111e+06
   7771.0  6.62394e+06
   7772.0  6.62677e+06
   7773.0  6.62959e+06
   7774.0  6.63242e+06
   7775.0  6.63525e+06
   7776.0  6.63808e+06
   7777.0  6.64092e+06
   7778.0  6.64375e+06
   7779.0  6.64658e+06
   7780.0  6.64942e+06
   7781.0  6.65225e+06
   7782.0  6.65509e+06
   7783.0  6.65792e+06
   7784.0  6.66076e+06
   7785.0  6.66360e+06
   7786.0  6.66644e+06
   7787.0  6.66928e+06
   7788.0  6.67212e+06
   7789.0  6.67496e+06
   7790.0  6.67780e+06
   7791.0  6.68064e+06
   7792.0  6.68349e+06
   7793.0  6.68633e+06
   7794.0  6.68918e+06
   7795.0  6.69203e+06
   7796.0  6.69487e+06
   7797.0  6.69772e+06
   7798.0  6.70057e+06
   7799.0  6.70342e+06
   7800.0  6.70627e+06
   7801.0  6.70912e+06
   7802.0  6.71197e+06
   7803.0  6.71483e+06
   7804.0  6.71768e+06
   7805.0  6.72054e+06
   7806.0  6.72339e+06
   7807.0  6.72625e+06
   7808.0  6.72911e+06
   7809.0  6.73196e+06
   7810.0  6.73482e+06
   7811.0  6.73768e+06
   7812.0  6.74054e+06
   7813.0  6.74340e+06
   7814.0  6.74627e+06
   7815.0  6.74913e+06
   7816.0  6.75199e+06
   7817.0  6.75486e+06
   7818.0  6.75772e+06
   7819.0  6.76059e+06
   7820.0  6.76346e+06
   7821.0  6.76632e+06
   7822.0  6.76919e+06
   7823.0  6.77206e+06
   7824.0  6.77493e+06
   7825.0  6.77781e+06
   7826.0  6.78068e+06
   7827.0  6.78355e+06
   7828.0  6.78642e+06
   7829.0  6.78930e+06
   7830.0  6.79217e+06
   7831.0  6.79505e+06
   7832.0  6.79793e+06
   7833.0  6.80081e+06
   7834.0  6.80368e+06
   7835.0  6.80656e+06
   7836.0  6.80944e+06
   7837.0  6.81233e+06
   7838.0  6.81521e+06
   7839.0  6.81809e+06
   7840.0  6.82098e+06
   7841.0  6.82386e+06
   7842.0  6.82675e+06
   7843.0  6.82963e+06
   7844.0  6.83252e+06
   7845.0  6.83541e+06
   7846.0  6.83830e+06
   7847.0  6.84119e+06
   7848.0  6.84408e+06
   7849.0  6.84697e+06
   7850.0  6.84986e+06
   7851.0  6.85275e+06
   7852.0  6.85565e+06
   7853.0  6.85854e+06
   7854.0  6.86144e+06
   7855.0  6.86433e+06
   7856.0  6.86723e+06
   7857.0  6.87013e+06
   7858.0  6.87303e+06
   7859.0  6.87593e+06
   7860.0  6.87883e+06
   7861.0  6.88173e+06
   7862.0  6.88463e+06
   7863.0  6.88753e+06
   7864.0  6.89044e+06
   7865.0  6.89334e+06
   7866.0  6.89625e+06
   7867.0  6.89915e+06
   7868.0  6.90206e+06
   7869.0  6.90497e+06
   7870.0  6.90788e+06
   7871.0  6.91079e+06
   7872.0  6.91370e+06
   7873.0  6.91661e+06
   7874.0  6.91952e+06
   7875.0  6.92243e+06
   7876.0  6.92535e+06
   7877.0  6.92826e+06
   7878.0  6.93118e+06
   7879.0  6.93409e+06
   7880.0  6.93701e+06
   7881.0  6.93993e+06
   7882.0  6.94285e+06
   7883.0  6.94577e+06
   7884.0  6.94869e+06
   7885.0  6.95161e+06
   7886.0  6.95453e+06
   7887.0  6.95745e+06
   7888.0  6.96038e+06
   7889.0  6.96330e+06
   7890.0  6.96623e+06
   7891.0  6.96915e+06
   7892.0  6.97208e+06
   7893.0  6.97501e+06
   7894.0  6.97794e+06
   7895.0  6.98087e+06
   7896.0  6.98380e+06
   7897.0  6.98673e+06
   7898.0  6.98966e+06
   7899.0  6.99260e+06
   7900.0  6.99553e+06
   7901.0  6.99846e+06
   7902.0  7.00140e+06
   7903.0  7.00434e+06
   7904.0  7.00727e+06
   7905.0  7.01021e+06
   7906.0  7.01315e+06
   7907.0  7.01609e+06
   7908.0  7.01903e+06
   7909.0  7.02197e+06
   7910.0  7.02491e+06
   7911.0  7.02786e+06
   7912.0  7.03080e+06
   7913.0  7.03375e+06
   7914.0  7.03669e+06
   7915.0  7.03964e+06
   7916.0  7.04258e+06
   7917.0  7.04553e+06
   7918.0  7.04848e+06
   7919.0  7.05143e+06
   7920.0  7.05438e+06
   7921.0  7.05733e+06
   7922.0  7.06029e+06
   7923.0  7.06324e+06
   7924.0  7.06619e+06
   7925.0  7.06915e+06
   7926.0  7.07210e+06
   7927.0  7.07506e+06
   7928.0  7.07802e+06
   7929.0  7.08098e+06
   7930.0  7.08393e+06
   7931.0  7.08689e+06
   7932.0  7.08985e+06
   7933.0  7.09282e+06
   7934.0  7.09578e+06
   7935.0  7.09874e+06
   7936.0  7.10171e+06
   7937.0  7.10467e+06
   7938.0  7.10764e+06
   7939.0  7.11060e+06
   7940.0  7.11357e+06
   7941.0  7.11654e+06
   7942.0  7.11951e+06
   7943.0  7.12248e+06
   7944.0  7.12545e+06
   7945.0  7.12842e+06
   7946.0  7.13139e+06
   7947.0  7.13437e+06
   7948.0  7.13734e+06
   7949.0  7.14031e+06
   7950.0  7.14329e+06
   7951.0  7.14627e+06
   7952.0  7.14924e+06
   7953.0  7.15222e+06
   7954.0  7.15520e+06
   7955.0  7.15818e+06
   7956.0  7.16116e+06
   7957.0  7.16414e+06
   7958.0  7.16713e+06
   7959.0  7.17011e+06
   7960.0  7.17310e+06
   7961.0  7.17608e+06
   7962.0  7.17907e+06
   7963.0  7.18205e+06
   7964.0  7.18504e+06
   7965.0  7.18803e+06
   7966.0  7.19102e+06
   7967.0  7.19401e+06
   7968.0  7.19700e+06
   7969.0  7.19999e+06
   7970.0  7.20298e+06
   7971.0  7.20598e+06
   7972.0  7.20897e+06
   7973.0  7.21197e+06
   7974.0  7.21496e+06
   7975.0  7.21796e+06
   7976.0  7.22096e+06
   7977.0  7.22396e+06
   7978.0  7.22695e+06
   7979.0  7.22996e+06
   7980.0  7.23296e+06
   7981.0  7.23596e+06
   7982.0  7.23896e+06
   7983.0  7.24196e+06
   7984.0  7.24497e+06
   7985.0  7.24797e+06
   7986.0  7.25098e+06
   7987.0  7.25399e+06
   7988.0  7.25700e+06
   7989.0  7.26000e+06
   7990.0  7.26301e+06
   7991.0  7.26602e+06
   7992.0  7.26903e+06
   7993.0  7.27205e+06
   7994.0  7.27506e+06
   7995.0  7.27807e+06
   7996.0  7.28109e+06
   7997.0  7.28410e+06
   7998.0  7.28712e+06
   7999.0  7.29014e+06
   8000.0  7.29315e+06
