# ExoMol CO2 partition-function data
  temp(K)         266
      1.0  1.17230e+00
      2.0  1.96080e+00
      3.0  2.84490e+00
      4.0  3.73380e+00
      5.0  4.62340e+00
      6.0  5.51330e+00
      7.0  6.40340e+00
      8.0  7.29370e+00
      9.0  8.18400e+00
     10.0  9.07440e+00
     11.0  9.96480e+00
     12.0  1.08552e+01
     13.0  1.17457e+01
     14.0  1.26362e+01
     15.0  1.35267e+01
     16.0  1.44172e+01
     17.0  1.53078e+01
     18.0  1.61983e+01
     19.0  1.70889e+01
     20.0  1.79794e+01
     21.0  1.88700e+01
     22.0  1.97606e+01
     23.0  2.06512e+01
     24.0  2.15417e+01
     25.0  2.24323e+01
     26.0  2.33229e+01
     27.0  2.42135e+01
     28.0  2.51041e+01
     29.0  2.59947e+01
     30.0  2.68854e+01
     31.0  2.77760e+01
     32.0  2.86666e+01
     33.0  2.95572e+01
     34.0  3.04478e+01
     35.0  3.13385e+01
     36.0  3.22291e+01
     37.0  3.31197e+01
     38.0  3.40104e+01
     39.0  3.49010e+01
     40.0  3.57917e+01
     41.0  3.66823e+01
     42.0  3.75730e+01
     43.0  3.84636e+01
     44.0  3.93543e+01
     45.0  4.02449e+01
     46.0  4.11356e+01
     47.0  4.20262e+01
     48.0  4.29169e+01
     49.0  4.38076e+01
     50.0  4.46982e+01
     51.0  4.55889e+01
     52.0  4.64796e+01
     53.0  4.73703e+01
     54.0  4.82609e+01
     55.0  4.91516e+01
     56.0  5.00423e+01
     57.0  5.09330e+01
     58.0  5.18237e+01
     59.0  5.27144e+01
     60.0  5.36051e+01
     61.0  5.44958e+01
     62.0  5.53865e+01
     63.0  5.62772e+01
     64.0  5.71679e+01
     65.0  5.80586e+01
     66.0  5.89493e+01
     67.0  5.98401e+01
     68.0  6.07308e+01
     69.0  6.16215e+01
     70.0  6.25123e+01
     71.0  6.34030e+01
     72.0  6.42938e+01
     73.0  6.51846e+01
     74.0  6.60753e+01
     75.0  6.69661e+01
     76.0  6.78569e+01
     77.0  6.87477e+01
     78.0  6.96386e+01
     79.0  7.05294e+01
     80.0  7.14203e+01
     81.0  7.23112e+01
     82.0  7.32021e+01
     83.0  7.40931e+01
     84.0  7.49840e+01
     85.0  7.58750e+01
     86.0  7.67661e+01
     87.0  7.76572e+01
     88.0  7.85483e+01
     89.0  7.94394e+01
     90.0  8.03307e+01
     91.0  8.12219e+01
     92.0  8.21133e+01
     93.0  8.30047e+01
     94.0  8.38961e+01
     95.0  8.47877e+01
     96.0  8.56793e+01
     97.0  8.65710e+01
     98.0  8.74628e+01
     99.0  8.83547e+01
    100.0  8.92467e+01
    101.0  9.01388e+01
    102.0  9.10310e+01
    103.0  9.19234e+01
    104.0  9.28159e+01
    105.0  9.37085e+01
    106.0  9.46013e+01
    107.0  9.54943e+01
    108.0  9.63874e+01
    109.0  9.72807e+01
    110.0  9.81742e+01
    111.0  9.90679e+01
    112.0  9.99618e+01
    113.0  1.00856e+02
    114.0  1.01750e+02
    115.0  1.02645e+02
    116.0  1.03540e+02
    117.0  1.04435e+02
    118.0  1.05330e+02
    119.0  1.06226e+02
    120.0  1.07122e+02
    121.0  1.08019e+02
    122.0  1.08915e+02
    123.0  1.09812e+02
    124.0  1.10710e+02
    125.0  1.11607e+02
    126.0  1.12505e+02
    127.0  1.13404e+02
    128.0  1.14303e+02
    129.0  1.15202e+02
    130.0  1.16102e+02
    131.0  1.17003e+02
    132.0  1.17903e+02
    133.0  1.18805e+02
    134.0  1.19707e+02
    135.0  1.20609e+02
    136.0  1.21512e+02
    137.0  1.22415e+02
    138.0  1.23319e+02
    139.0  1.24224e+02
    140.0  1.25129e+02
    141.0  1.26035e+02
    142.0  1.26942e+02
    143.0  1.27849e+02
    144.0  1.28757e+02
    145.0  1.29665e+02
    146.0  1.30575e+02
    147.0  1.31485e+02
    148.0  1.32396e+02
    149.0  1.33307e+02
    150.0  1.34220e+02
    151.0  1.35133e+02
    152.0  1.36047e+02
    153.0  1.36962e+02
    154.0  1.37878e+02
    155.0  1.38794e+02
    156.0  1.39712e+02
    157.0  1.40631e+02
    158.0  1.41550e+02
    159.0  1.42471e+02
    160.0  1.43392e+02
    161.0  1.44315e+02
    162.0  1.45238e+02
    163.0  1.46163e+02
    164.0  1.47088e+02
    165.0  1.48015e+02
    166.0  1.48943e+02
    167.0  1.49872e+02
    168.0  1.50802e+02
    169.0  1.51733e+02
    170.0  1.52666e+02
    171.0  1.53599e+02
    172.0  1.54534e+02
    173.0  1.55470e+02
    174.0  1.56408e+02
    175.0  1.57347e+02
    176.0  1.58287e+02
    177.0  1.59228e+02
    178.0  1.60171e+02
    179.0  1.61115e+02
    180.0  1.62060e+02
    181.0  1.63007e+02
    182.0  1.63956e+02
    183.0  1.64905e+02
    184.0  1.65857e+02
    185.0  1.66809e+02
    186.0  1.67763e+02
    187.0  1.68719e+02
    188.0  1.69677e+02
    189.0  1.70636e+02
    190.0  1.71596e+02
    191.0  1.72558e+02
    192.0  1.73522e+02
    193.0  1.74487e+02
    194.0  1.75454e+02
    195.0  1.76423e+02
    196.0  1.77393e+02
    197.0  1.78365e+02
    198.0  1.79339e+02
    199.0  1.80315e+02
    200.0  1.81292e+02
    201.0  1.82272e+02
    202.0  1.83253e+02
    203.0  1.84236e+02
    204.0  1.85220e+02
    205.0  1.86207e+02
    206.0  1.87195e+02
    207.0  1.88186e+02
    208.0  1.89178e+02
    209.0  1.90173e+02
    210.0  1.91169e+02
    211.0  1.92167e+02
    212.0  1.93167e+02
    213.0  1.94170e+02
    214.0  1.95174e+02
    215.0  1.96180e+02
    216.0  1.97189e+02
    217.0  1.98199e+02
    218.0  1.99212e+02
    219.0  2.00227e+02
    220.0  2.01244e+02
    221.0  2.02263e+02
    222.0  2.03284e+02
    223.0  2.04308e+02
    224.0  2.05334e+02
    225.0  2.06362e+02
    226.0  2.07392e+02
    227.0  2.08424e+02
    228.0  2.09459e+02
    229.0  2.10496e+02
    230.0  2.11536e+02
    231.0  2.12578e+02
    232.0  2.13622e+02
    233.0  2.14668e+02
    234.0  2.15718e+02
    235.0  2.16769e+02
    236.0  2.17823e+02
    237.0  2.18879e+02
    238.0  2.19938e+02
    239.0  2.20999e+02
    240.0  2.22062e+02
    241.0  2.23129e+02
    242.0  2.24197e+02
    243.0  2.25268e+02
    244.0  2.26342e+02
    245.0  2.27419e+02
    246.0  2.28498e+02
    247.0  2.29579e+02
    248.0  2.30664e+02
    249.0  2.31750e+02
    250.0  2.32840e+02
    251.0  2.33932e+02
    252.0  2.35027e+02
    253.0  2.36125e+02
    254.0  2.37225e+02
    255.0  2.38328e+02
    256.0  2.39434e+02
    257.0  2.40542e+02
    258.0  2.41654e+02
    259.0  2.42768e+02
    260.0  2.43885e+02
    261.0  2.45005e+02
    262.0  2.46127e+02
    263.0  2.47253e+02
    264.0  2.48381e+02
    265.0  2.49513e+02
    266.0  2.50647e+02
    267.0  2.51784e+02
    268.0  2.52924e+02
    269.0  2.54067e+02
    270.0  2.55213e+02
    271.0  2.56362e+02
    272.0  2.57514e+02
    273.0  2.58669e+02
    274.0  2.59827e+02
    275.0  2.60988e+02
    276.0  2.62152e+02
    277.0  2.63319e+02
    278.0  2.64490e+02
    279.0  2.65663e+02
    280.0  2.66839e+02
    281.0  2.68019e+02
    282.0  2.69202e+02
    283.0  2.70387e+02
    284.0  2.71577e+02
    285.0  2.72769e+02
    286.0  2.73964e+02
    287.0  2.75163e+02
    288.0  2.76365e+02
    289.0  2.77570e+02
    290.0  2.78779e+02
    291.0  2.79990e+02
    292.0  2.81205e+02
    293.0  2.82423e+02
    294.0  2.83645e+02
    295.0  2.84870e+02
    296.0  2.86098e+02
    297.0  2.87330e+02
    298.0  2.88565e+02
    299.0  2.89803e+02
    300.0  2.91045e+02
    301.0  2.92290e+02
    302.0  2.93539e+02
    303.0  2.94791e+02
    304.0  2.96046e+02
    305.0  2.97305e+02
    306.0  2.98568e+02
    307.0  2.99834e+02
    308.0  3.01103e+02
    309.0  3.02376e+02
    310.0  3.03653e+02
    311.0  3.04933e+02
    312.0  3.06217e+02
    313.0  3.07504e+02
    314.0  3.08795e+02
    315.0  3.10089e+02
    316.0  3.11387e+02
    317.0  3.12689e+02
    318.0  3.13994e+02
    319.0  3.15303e+02
    320.0  3.16616e+02
    321.0  3.17932e+02
    322.0  3.19252e+02
    323.0  3.20576e+02
    324.0  3.21903e+02
    325.0  3.23235e+02
    326.0  3.24570e+02
    327.0  3.25908e+02
    328.0  3.27251e+02
    329.0  3.28597e+02
    330.0  3.29947e+02
    331.0  3.31301e+02
    332.0  3.32659e+02
    333.0  3.34021e+02
    334.0  3.35386e+02
    335.0  3.36755e+02
    336.0  3.38128e+02
    337.0  3.39506e+02
    338.0  3.40887e+02
    339.0  3.42272e+02
    340.0  3.43661e+02
    341.0  3.45053e+02
    342.0  3.46450e+02
    343.0  3.47851e+02
    344.0  3.49256e+02
    345.0  3.50664e+02
    346.0  3.52077e+02
    347.0  3.53494e+02
    348.0  3.54915e+02
    349.0  3.56340e+02
    350.0  3.57769e+02
    351.0  3.59202e+02
    352.0  3.60639e+02
    353.0  3.62080e+02
    354.0  3.63526e+02
    355.0  3.64975e+02
    356.0  3.66429e+02
    357.0  3.67887e+02
    358.0  3.69349e+02
    359.0  3.70815e+02
    360.0  3.72285e+02
    361.0  3.73760e+02
    362.0  3.75238e+02
    363.0  3.76721e+02
    364.0  3.78209e+02
    365.0  3.79700e+02
    366.0  3.81196e+02
    367.0  3.82696e+02
    368.0  3.84201e+02
    369.0  3.85709e+02
    370.0  3.87223e+02
    371.0  3.88740e+02
    372.0  3.90262e+02
    373.0  3.91788e+02
    374.0  3.93318e+02
    375.0  3.94853e+02
    376.0  3.96392e+02
    377.0  3.97936e+02
    378.0  3.99484e+02
    379.0  4.01037e+02
    380.0  4.02594e+02
    381.0  4.04156e+02
    382.0  4.05721e+02
    383.0  4.07292e+02
    384.0  4.08867e+02
    385.0  4.10447e+02
    386.0  4.12031e+02
    387.0  4.13619e+02
    388.0  4.15212e+02
    389.0  4.16810e+02
    390.0  4.18412e+02
    391.0  4.20019e+02
    392.0  4.21631e+02
    393.0  4.23247e+02
    394.0  4.24868e+02
    395.0  4.26493e+02
    396.0  4.28123e+02
    397.0  4.29758e+02
    398.0  4.31398e+02
    399.0  4.33042e+02
    400.0  4.34691e+02
    401.0  4.36344e+02
    402.0  4.38003e+02
    403.0  4.39666e+02
    404.0  4.41334e+02
    405.0  4.43007e+02
    406.0  4.44684e+02
    407.0  4.46366e+02
    408.0  4.48053e+02
    409.0  4.49745e+02
    410.0  4.51442e+02
    411.0  4.53144e+02
    412.0  4.54850e+02
    413.0  4.56562e+02
    414.0  4.58278e+02
    415.0  4.59999e+02
    416.0  4.61725e+02
    417.0  4.63456e+02
    418.0  4.65192e+02
    419.0  4.66933e+02
    420.0  4.68679e+02
    421.0  4.70430e+02
    422.0  4.72186e+02
    423.0  4.73947e+02
    424.0  4.75713e+02
    425.0  4.77485e+02
    426.0  4.79261e+02
    427.0  4.81042e+02
    428.0  4.82828e+02
    429.0  4.84620e+02
    430.0  4.86416e+02
    431.0  4.88218e+02
    432.0  4.90024e+02
    433.0  4.91836e+02
    434.0  4.93653e+02
    435.0  4.95476e+02
    436.0  4.97303e+02
    437.0  4.99136e+02
    438.0  5.00973e+02
    439.0  5.02817e+02
    440.0  5.04665e+02
    441.0  5.06518e+02
    442.0  5.08377e+02
    443.0  5.10241e+02
    444.0  5.12111e+02
    445.0  5.13986e+02
    446.0  5.15866e+02
    447.0  5.17751e+02
    448.0  5.19642e+02
    449.0  5.21538e+02
    450.0  5.23439e+02
    451.0  5.25346e+02
    452.0  5.27259e+02
    453.0  5.29176e+02
    454.0  5.31100e+02
    455.0  5.33028e+02
    456.0  5.34962e+02
    457.0  5.36902e+02
    458.0  5.38847e+02
    459.0  5.40797e+02
    460.0  5.42753e+02
    461.0  5.44715e+02
    462.0  5.46682e+02
    463.0  5.48654e+02
    464.0  5.50633e+02
    465.0  5.52616e+02
    466.0  5.54606e+02
    467.0  5.56601e+02
    468.0  5.58602e+02
    469.0  5.60608e+02
    470.0  5.62620e+02
    471.0  5.64637e+02
    472.0  5.66661e+02
    473.0  5.68690e+02
    474.0  5.70724e+02
    475.0  5.72765e+02
    476.0  5.74811e+02
    477.0  5.76863e+02
    478.0  5.78920e+02
    479.0  5.80984e+02
    480.0  5.83053e+02
    481.0  5.85128e+02
    482.0  5.87209e+02
    483.0  5.89295e+02
    484.0  5.91388e+02
    485.0  5.93486e+02
    486.0  5.95590e+02
    487.0  5.97701e+02
    488.0  5.99817e+02
    489.0  6.01938e+02
    490.0  6.04066e+02
    491.0  6.06200e+02
    492.0  6.08340e+02
    493.0  6.10486e+02
    494.0  6.12637e+02
    495.0  6.14795e+02
    496.0  6.16959e+02
    497.0  6.19129e+02
    498.0  6.21304e+02
    499.0  6.23486e+02
    500.0  6.25674e+02
    501.0  6.27868e+02
    502.0  6.30068e+02
    503.0  6.32275e+02
    504.0  6.34487e+02
    505.0  6.36706e+02
    506.0  6.38930e+02
    507.0  6.41161e+02
    508.0  6.43398e+02
    509.0  6.45641e+02
    510.0  6.47891e+02
    511.0  6.50146e+02
    512.0  6.52408e+02
    513.0  6.54677e+02
    514.0  6.56951e+02
    515.0  6.59232e+02
    516.0  6.61519e+02
    517.0  6.63812e+02
    518.0  6.66112e+02
    519.0  6.68418e+02
    520.0  6.70730e+02
    521.0  6.73049e+02
    522.0  6.75374e+02
    523.0  6.77706e+02
    524.0  6.80044e+02
    525.0  6.82388e+02
    526.0  6.84739e+02
    527.0  6.87097e+02
    528.0  6.89461e+02
    529.0  6.91831e+02
    530.0  6.94208e+02
    531.0  6.96591e+02
    532.0  6.98981e+02
    533.0  7.01377e+02
    534.0  7.03780e+02
    535.0  7.06190e+02
    536.0  7.08606e+02
    537.0  7.11029e+02
    538.0  7.13459e+02
    539.0  7.15895e+02
    540.0  7.18337e+02
    541.0  7.20787e+02
    542.0  7.23243e+02
    543.0  7.25706e+02
    544.0  7.28175e+02
    545.0  7.30652e+02
    546.0  7.33135e+02
    547.0  7.35625e+02
    548.0  7.38121e+02
    549.0  7.40625e+02
    550.0  7.43135e+02
    551.0  7.45652e+02
    552.0  7.48176e+02
    553.0  7.50706e+02
    554.0  7.53244e+02
    555.0  7.55788e+02
    556.0  7.58340e+02
    557.0  7.60898e+02
    558.0  7.63463e+02
    559.0  7.66035e+02
    560.0  7.68614e+02
    561.0  7.71201e+02
    562.0  7.73794e+02
    563.0  7.76394e+02
    564.0  7.79001e+02
    565.0  7.81615e+02
    566.0  7.84236e+02
    567.0  7.86865e+02
    568.0  7.89500e+02
    569.0  7.92143e+02
    570.0  7.94792e+02
    571.0  7.97449e+02
    572.0  8.00113e+02
    573.0  8.02784e+02
    574.0  8.05462e+02
    575.0  8.08148e+02
    576.0  8.10841e+02
    577.0  8.13540e+02
    578.0  8.16247e+02
    579.0  8.18962e+02
    580.0  8.21684e+02
    581.0  8.24413e+02
    582.0  8.27149e+02
    583.0  8.29893e+02
    584.0  8.32644e+02
    585.0  8.35402e+02
    586.0  8.38168e+02
    587.0  8.40941e+02
    588.0  8.43721e+02
    589.0  8.46509e+02
    590.0  8.49304e+02
    591.0  8.52107e+02
    592.0  8.54918e+02
    593.0  8.57735e+02
    594.0  8.60561e+02
    595.0  8.63394e+02
    596.0  8.66234e+02
    597.0  8.69082e+02
    598.0  8.71937e+02
    599.0  8.74800e+02
    600.0  8.77671e+02
    601.0  8.80549e+02
    602.0  8.83435e+02
    603.0  8.86329e+02
    604.0  8.89230e+02
    605.0  8.92139e+02
    606.0  8.95055e+02
    607.0  8.97980e+02
    608.0  9.00912e+02
    609.0  9.03851e+02
    610.0  9.06799e+02
    611.0  9.09754e+02
    612.0  9.12717e+02
    613.0  9.15688e+02
    614.0  9.18667e+02
    615.0  9.21654e+02
    616.0  9.24648e+02
    617.0  9.27651e+02
    618.0  9.30661e+02
    619.0  9.33679e+02
    620.0  9.36705e+02
    621.0  9.39740e+02
    622.0  9.42782e+02
    623.0  9.45832e+02
    624.0  9.48890e+02
    625.0  9.51956e+02
    626.0  9.55030e+02
    627.0  9.58112e+02
    628.0  9.61202e+02
    629.0  9.64300e+02
    630.0  9.67407e+02
    631.0  9.70521e+02
    632.0  9.73644e+02
    633.0  9.76775e+02
    634.0  9.79914e+02
    635.0  9.83061e+02
    636.0  9.86216e+02
    637.0  9.89380e+02
    638.0  9.92552e+02
    639.0  9.95732e+02
    640.0  9.98920e+02
    641.0  1.00212e+03
    642.0  1.00532e+03
    643.0  1.00853e+03
    644.0  1.01176e+03
    645.0  1.01499e+03
    646.0  1.01823e+03
    647.0  1.02147e+03
    648.0  1.02473e+03
    649.0  1.02799e+03
    650.0  1.03126e+03
    651.0  1.03454e+03
    652.0  1.03783e+03
    653.0  1.04113e+03
    654.0  1.04444e+03
    655.0  1.04775e+03
    656.0  1.05107e+03
    657.0  1.05441e+03
    658.0  1.05775e+03
    659.0  1.06109e+03
    660.0  1.06445e+03
    661.0  1.06782e+03
    662.0  1.07119e+03
    663.0  1.07458e+03
    664.0  1.07797e+03
    665.0  1.08137e+03
    666.0  1.08478e+03
    667.0  1.08820e+03
    668.0  1.09162e+03
    669.0  1.09506e+03
    670.0  1.09851e+03
    671.0  1.10196e+03
    672.0  1.10542e+03
    673.0  1.10889e+03
    674.0  1.11237e+03
    675.0  1.11586e+03
    676.0  1.11936e+03
    677.0  1.12287e+03
    678.0  1.12638e+03
    679.0  1.12991e+03
    680.0  1.13344e+03
    681.0  1.13698e+03
    682.0  1.14054e+03
    683.0  1.14410e+03
    684.0  1.14767e+03
    685.0  1.15125e+03
    686.0  1.15483e+03
    687.0  1.15843e+03
    688.0  1.16204e+03
    689.0  1.16565e+03
    690.0  1.16928e+03
    691.0  1.17291e+03
    692.0  1.17655e+03
    693.0  1.18021e+03
    694.0  1.18387e+03
    695.0  1.18754e+03
    696.0  1.19122e+03
    697.0  1.19491e+03
    698.0  1.19861e+03
    699.0  1.20232e+03
    700.0  1.20603e+03
    701.0  1.20976e+03
    702.0  1.21350e+03
    703.0  1.21724e+03
    704.0  1.22100e+03
    705.0  1.22476e+03
    706.0  1.22853e+03
    707.0  1.23232e+03
    708.0  1.23611e+03
    709.0  1.23991e+03
    710.0  1.24373e+03
    711.0  1.24755e+03
    712.0  1.25138e+03
    713.0  1.25522e+03
    714.0  1.25907e+03
    715.0  1.26293e+03
    716.0  1.26680e+03
    717.0  1.27068e+03
    718.0  1.27457e+03
    719.0  1.27847e+03
    720.0  1.28238e+03
    721.0  1.28629e+03
    722.0  1.29022e+03
    723.0  1.29416e+03
    724.0  1.29811e+03
    725.0  1.30206e+03
    726.0  1.30603e+03
    727.0  1.31001e+03
    728.0  1.31400e+03
    729.0  1.31799e+03
    730.0  1.32200e+03
    731.0  1.32602e+03
    732.0  1.33004e+03
    733.0  1.33408e+03
    734.0  1.33813e+03
    735.0  1.34219e+03
    736.0  1.34625e+03
    737.0  1.35033e+03
    738.0  1.35442e+03
    739.0  1.35851e+03
    740.0  1.36262e+03
    741.0  1.36674e+03
    742.0  1.37087e+03
    743.0  1.37500e+03
    744.0  1.37915e+03
    745.0  1.38331e+03
    746.0  1.38748e+03
    747.0  1.39166e+03
    748.0  1.39585e+03
    749.0  1.40005e+03
    750.0  1.40426e+03
    751.0  1.40848e+03
    752.0  1.41271e+03
    753.0  1.41695e+03
    754.0  1.42120e+03
    755.0  1.42546e+03
    756.0  1.42973e+03
    757.0  1.43402e+03
    758.0  1.43831e+03
    759.0  1.44261e+03
    760.0  1.44693e+03
    761.0  1.45125e+03
    762.0  1.45559e+03
    763.0  1.45993e+03
    764.0  1.46429e+03
    765.0  1.46866e+03
    766.0  1.47304e+03
    767.0  1.47742e+03
    768.0  1.48182e+03
    769.0  1.48623e+03
    770.0  1.49065e+03
    771.0  1.49509e+03
    772.0  1.49953e+03
    773.0  1.50398e+03
    774.0  1.50845e+03
    775.0  1.51292e+03
    776.0  1.51741e+03
    777.0  1.52190e+03
    778.0  1.52641e+03
    779.0  1.53093e+03
    780.0  1.53546e+03
    781.0  1.54000e+03
    782.0  1.54455e+03
    783.0  1.54911e+03
    784.0  1.55368e+03
    785.0  1.55827e+03
    786.0  1.56286e+03
    787.0  1.56747e+03
    788.0  1.57209e+03
    789.0  1.57672e+03
    790.0  1.58136e+03
    791.0  1.58601e+03
    792.0  1.59067e+03
    793.0  1.59534e+03
    794.0  1.60003e+03
    795.0  1.60472e+03
    796.0  1.60943e+03
    797.0  1.61415e+03
    798.0  1.61888e+03
    799.0  1.62362e+03
    800.0  1.62837e+03
    801.0  1.63314e+03
    802.0  1.63791e+03
    803.0  1.64270e+03
    804.0  1.64750e+03
    805.0  1.65231e+03
    806.0  1.65713e+03
    807.0  1.66196e+03
    808.0  1.66681e+03
    809.0  1.67166e+03
    810.0  1.67653e+03
    811.0  1.68141e+03
    812.0  1.68630e+03
    813.0  1.69120e+03
    814.0  1.69612e+03
    815.0  1.70104e+03
    816.0  1.70598e+03
    817.0  1.71093e+03
    818.0  1.71589e+03
    819.0  1.72086e+03
    820.0  1.72585e+03
    821.0  1.73084e+03
    822.0  1.73585e+03
    823.0  1.74087e+03
    824.0  1.74591e+03
    825.0  1.75095e+03
    826.0  1.75601e+03
    827.0  1.76107e+03
    828.0  1.76615e+03
    829.0  1.77125e+03
    830.0  1.77635e+03
    831.0  1.78146e+03
    832.0  1.78659e+03
    833.0  1.79173e+03
    834.0  1.79689e+03
    835.0  1.80205e+03
    836.0  1.80723e+03
    837.0  1.81242e+03
    838.0  1.81762e+03
    839.0  1.82283e+03
    840.0  1.82806e+03
    841.0  1.83329e+03
    842.0  1.83854e+03
    843.0  1.84381e+03
    844.0  1.84908e+03
    845.0  1.85437e+03
    846.0  1.85967e+03
    847.0  1.86498e+03
    848.0  1.87030e+03
    849.0  1.87564e+03
    850.0  1.88099e+03
    851.0  1.88635e+03
    852.0  1.89173e+03
    853.0  1.89711e+03
    854.0  1.90251e+03
    855.0  1.90792e+03
    856.0  1.91335e+03
    857.0  1.91879e+03
    858.0  1.92424e+03
    859.0  1.92970e+03
    860.0  1.93517e+03
    861.0  1.94066e+03
    862.0  1.94616e+03
    863.0  1.95168e+03
    864.0  1.95720e+03
    865.0  1.96274e+03
    866.0  1.96829e+03
    867.0  1.97386e+03
    868.0  1.97944e+03
    869.0  1.98503e+03
    870.0  1.99063e+03
    871.0  1.99625e+03
    872.0  2.00188e+03
    873.0  2.00752e+03
    874.0  2.01318e+03
    875.0  2.01885e+03
    876.0  2.02453e+03
    877.0  2.03022e+03
    878.0  2.03593e+03
    879.0  2.04165e+03
    880.0  2.04739e+03
    881.0  2.05314e+03
    882.0  2.05890e+03
    883.0  2.06467e+03
    884.0  2.07046e+03
    885.0  2.07626e+03
    886.0  2.08207e+03
    887.0  2.08790e+03
    888.0  2.09374e+03
    889.0  2.09960e+03
    890.0  2.10546e+03
    891.0  2.11135e+03
    892.0  2.11724e+03
    893.0  2.12315e+03
    894.0  2.12907e+03
    895.0  2.13501e+03
    896.0  2.14095e+03
    897.0  2.14692e+03
    898.0  2.15289e+03
    899.0  2.15888e+03
    900.0  2.16489e+03
    901.0  2.17090e+03
    902.0  2.17693e+03
    903.0  2.18298e+03
    904.0  2.18904e+03
    905.0  2.19511e+03
    906.0  2.20119e+03
    907.0  2.20729e+03
    908.0  2.21341e+03
    909.0  2.21953e+03
    910.0  2.22568e+03
    911.0  2.23183e+03
    912.0  2.23800e+03
    913.0  2.24418e+03
    914.0  2.25038e+03
    915.0  2.25659e+03
    916.0  2.26282e+03
    917.0  2.26906e+03
    918.0  2.27531e+03
    919.0  2.28158e+03
    920.0  2.28786e+03
    921.0  2.29416e+03
    922.0  2.30047e+03
    923.0  2.30679e+03
    924.0  2.31313e+03
    925.0  2.31948e+03
    926.0  2.32585e+03
    927.0  2.33223e+03
    928.0  2.33863e+03
    929.0  2.34504e+03
    930.0  2.35146e+03
    931.0  2.35790e+03
    932.0  2.36436e+03
    933.0  2.37083e+03
    934.0  2.37731e+03
    935.0  2.38381e+03
    936.0  2.39032e+03
    937.0  2.39684e+03
    938.0  2.40339e+03
    939.0  2.40994e+03
    940.0  2.41651e+03
    941.0  2.42310e+03
    942.0  2.42970e+03
    943.0  2.43631e+03
    944.0  2.44294e+03
    945.0  2.44959e+03
    946.0  2.45624e+03
    947.0  2.46292e+03
    948.0  2.46961e+03
    949.0  2.47631e+03
    950.0  2.48303e+03
    951.0  2.48976e+03
    952.0  2.49651e+03
    953.0  2.50327e+03
    954.0  2.51005e+03
    955.0  2.51685e+03
    956.0  2.52366e+03
    957.0  2.53048e+03
    958.0  2.53732e+03
    959.0  2.54417e+03
    960.0  2.55104e+03
    961.0  2.55793e+03
    962.0  2.56483e+03
    963.0  2.57174e+03
    964.0  2.57867e+03
    965.0  2.58562e+03
    966.0  2.59258e+03
    967.0  2.59955e+03
    968.0  2.60655e+03
    969.0  2.61355e+03
    970.0  2.62058e+03
    971.0  2.62761e+03
    972.0  2.63467e+03
    973.0  2.64174e+03
    974.0  2.64882e+03
    975.0  2.65592e+03
    976.0  2.66304e+03
    977.0  2.67017e+03
    978.0  2.67732e+03
    979.0  2.68448e+03
    980.0  2.69166e+03
    981.0  2.69885e+03
    982.0  2.70606e+03
    983.0  2.71329e+03
    984.0  2.72053e+03
    985.0  2.72779e+03
    986.0  2.73506e+03
    987.0  2.74235e+03
    988.0  2.74966e+03
    989.0  2.75698e+03
    990.0  2.76431e+03
    991.0  2.77167e+03
    992.0  2.77904e+03
    993.0  2.78642e+03
    994.0  2.79382e+03
    995.0  2.80124e+03
    996.0  2.80868e+03
    997.0  2.81613e+03
    998.0  2.82359e+03
    999.0  2.83107e+03
   1000.0  2.83857e+03
   1001.0  2.84609e+03
   1002.0  2.85362e+03
   1003.0  2.86117e+03
   1004.0  2.86873e+03
   1005.0  2.87631e+03
   1006.0  2.88391e+03
   1007.0  2.89152e+03
   1008.0  2.89915e+03
   1009.0  2.90680e+03
   1010.0  2.91446e+03
   1011.0  2.92214e+03
   1012.0  2.92984e+03
   1013.0  2.93755e+03
   1014.0  2.94528e+03
   1015.0  2.95303e+03
   1016.0  2.96079e+03
   1017.0  2.96857e+03
   1018.0  2.97636e+03
   1019.0  2.98418e+03
   1020.0  2.99201e+03
   1021.0  2.99985e+03
   1022.0  3.00772e+03
   1023.0  3.01560e+03
   1024.0  3.02350e+03
   1025.0  3.03141e+03
   1026.0  3.03934e+03
   1027.0  3.04729e+03
   1028.0  3.05526e+03
   1029.0  3.06324e+03
   1030.0  3.07124e+03
   1031.0  3.07926e+03
   1032.0  3.08729e+03
   1033.0  3.09534e+03
   1034.0  3.10341e+03
   1035.0  3.11149e+03
   1036.0  3.11960e+03
   1037.0  3.12772e+03
   1038.0  3.13586e+03
   1039.0  3.14401e+03
   1040.0  3.15218e+03
   1041.0  3.16037e+03
   1042.0  3.16858e+03
   1043.0  3.17680e+03
   1044.0  3.18505e+03
   1045.0  3.19331e+03
   1046.0  3.20158e+03
   1047.0  3.20988e+03
   1048.0  3.21819e+03
   1049.0  3.22652e+03
   1050.0  3.23487e+03
   1051.0  3.24324e+03
   1052.0  3.25162e+03
   1053.0  3.26002e+03
   1054.0  3.26844e+03
   1055.0  3.27688e+03
   1056.0  3.28533e+03
   1057.0  3.29380e+03
   1058.0  3.30229e+03
   1059.0  3.31080e+03
   1060.0  3.31933e+03
   1061.0  3.32787e+03
   1062.0  3.33644e+03
   1063.0  3.34502e+03
   1064.0  3.35361e+03
   1065.0  3.36223e+03
   1066.0  3.37087e+03
   1067.0  3.37952e+03
   1068.0  3.38819e+03
   1069.0  3.39688e+03
   1070.0  3.40559e+03
   1071.0  3.41431e+03
   1072.0  3.42306e+03
   1073.0  3.43182e+03
   1074.0  3.44060e+03
   1075.0  3.44940e+03
   1076.0  3.45822e+03
   1077.0  3.46706e+03
   1078.0  3.47591e+03
   1079.0  3.48479e+03
   1080.0  3.49368e+03
   1081.0  3.50259e+03
   1082.0  3.51152e+03
   1083.0  3.52047e+03
   1084.0  3.52943e+03
   1085.0  3.53842e+03
   1086.0  3.54742e+03
   1087.0  3.55645e+03
   1088.0  3.56549e+03
   1089.0  3.57455e+03
   1090.0  3.58363e+03
   1091.0  3.59273e+03
   1092.0  3.60185e+03
   1093.0  3.61098e+03
   1094.0  3.62014e+03
   1095.0  3.62931e+03
   1096.0  3.63851e+03
   1097.0  3.64772e+03
   1098.0  3.65695e+03
   1099.0  3.66620e+03
   1100.0  3.67547e+03
   1101.0  3.68476e+03
   1102.0  3.69407e+03
   1103.0  3.70340e+03
   1104.0  3.71274e+03
   1105.0  3.72211e+03
   1106.0  3.73150e+03
   1107.0  3.74090e+03
   1108.0  3.75033e+03
   1109.0  3.75977e+03
   1110.0  3.76924e+03
   1111.0  3.77872e+03
   1112.0  3.78822e+03
   1113.0  3.79774e+03
   1114.0  3.80729e+03
   1115.0  3.81685e+03
   1116.0  3.82643e+03
   1117.0  3.83603e+03
   1118.0  3.84565e+03
   1119.0  3.85529e+03
   1120.0  3.86495e+03
   1121.0  3.87463e+03
   1122.0  3.88433e+03
   1123.0  3.89405e+03
   1124.0  3.90379e+03
   1125.0  3.91355e+03
   1126.0  3.92333e+03
   1127.0  3.93313e+03
   1128.0  3.94295e+03
   1129.0  3.95279e+03
   1130.0  3.96265e+03
   1131.0  3.97254e+03
   1132.0  3.98244e+03
   1133.0  3.99236e+03
   1134.0  4.00230e+03
   1135.0  4.01226e+03
   1136.0  4.02224e+03
   1137.0  4.03224e+03
   1138.0  4.04227e+03
   1139.0  4.05231e+03
   1140.0  4.06237e+03
   1141.0  4.07246e+03
   1142.0  4.08256e+03
   1143.0  4.09269e+03
   1144.0  4.10283e+03
   1145.0  4.11300e+03
   1146.0  4.12319e+03
   1147.0  4.13339e+03
   1148.0  4.14362e+03
   1149.0  4.15387e+03
   1150.0  4.16414e+03
   1151.0  4.17443e+03
   1152.0  4.18474e+03
   1153.0  4.19507e+03
   1154.0  4.20543e+03
   1155.0  4.21580e+03
   1156.0  4.22620e+03
   1157.0  4.23661e+03
   1158.0  4.24705e+03
   1159.0  4.25751e+03
   1160.0  4.26799e+03
   1161.0  4.27849e+03
   1162.0  4.28901e+03
   1163.0  4.29955e+03
   1164.0  4.31012e+03
   1165.0  4.32070e+03
   1166.0  4.33131e+03
   1167.0  4.34194e+03
   1168.0  4.35259e+03
   1169.0  4.36326e+03
   1170.0  4.37395e+03
   1171.0  4.38466e+03
   1172.0  4.39540e+03
   1173.0  4.40615e+03
   1174.0  4.41693e+03
   1175.0  4.42773e+03
   1176.0  4.43855e+03
   1177.0  4.44940e+03
   1178.0  4.46026e+03
   1179.0  4.47115e+03
   1180.0  4.48206e+03
   1181.0  4.49299e+03
   1182.0  4.50394e+03
   1183.0  4.51491e+03
   1184.0  4.52591e+03
   1185.0  4.53693e+03
   1186.0  4.54797e+03
   1187.0  4.55903e+03
   1188.0  4.57011e+03
   1189.0  4.58122e+03
   1190.0  4.59235e+03
   1191.0  4.60350e+03
   1192.0  4.61467e+03
   1193.0  4.62586e+03
   1194.0  4.63708e+03
   1195.0  4.64832e+03
   1196.0  4.65958e+03
   1197.0  4.67087e+03
   1198.0  4.68217e+03
   1199.0  4.69350e+03
   1200.0  4.70485e+03
   1201.0  4.71623e+03
   1202.0  4.72762e+03
   1203.0  4.73904e+03
   1204.0  4.75048e+03
   1205.0  4.76195e+03
   1206.0  4.77343e+03
   1207.0  4.78494e+03
   1208.0  4.79647e+03
   1209.0  4.80803e+03
   1210.0  4.81961e+03
   1211.0  4.83121e+03
   1212.0  4.84283e+03
   1213.0  4.85448e+03
   1214.0  4.86614e+03
   1215.0  4.87784e+03
   1216.0  4.88955e+03
   1217.0  4.90129e+03
   1218.0  4.91305e+03
   1219.0  4.92484e+03
   1220.0  4.93664e+03
   1221.0  4.94847e+03
   1222.0  4.96033e+03
   1223.0  4.97220e+03
   1224.0  4.98411e+03
   1225.0  4.99603e+03
   1226.0  5.00798e+03
   1227.0  5.01995e+03
   1228.0  5.03194e+03
   1229.0  5.04396e+03
   1230.0  5.05600e+03
   1231.0  5.06806e+03
   1232.0  5.08015e+03
   1233.0  5.09226e+03
   1234.0  5.10440e+03
   1235.0  5.11656e+03
   1236.0  5.12874e+03
   1237.0  5.14095e+03
   1238.0  5.15318e+03
   1239.0  5.16543e+03
   1240.0  5.17771e+03
   1241.0  5.19001e+03
   1242.0  5.20234e+03
   1243.0  5.21469e+03
   1244.0  5.22706e+03
   1245.0  5.23946e+03
   1246.0  5.25188e+03
   1247.0  5.26433e+03
   1248.0  5.27680e+03
   1249.0  5.28929e+03
   1250.0  5.30181e+03
   1251.0  5.31435e+03
   1252.0  5.32692e+03
   1253.0  5.33951e+03
   1254.0  5.35213e+03
   1255.0  5.36477e+03
   1256.0  5.37743e+03
   1257.0  5.39012e+03
   1258.0  5.40283e+03
   1259.0  5.41557e+03
   1260.0  5.42834e+03
   1261.0  5.44112e+03
   1262.0  5.45394e+03
   1263.0  5.46677e+03
   1264.0  5.47963e+03
   1265.0  5.49252e+03
   1266.0  5.50543e+03
   1267.0  5.51837e+03
   1268.0  5.53133e+03
   1269.0  5.54431e+03
   1270.0  5.55733e+03
   1271.0  5.57036e+03
   1272.0  5.58342e+03
   1273.0  5.59651e+03
   1274.0  5.60962e+03
   1275.0  5.62276e+03
   1276.0  5.63592e+03
   1277.0  5.64910e+03
   1278.0  5.66231e+03
   1279.0  5.67555e+03
   1280.0  5.68881e+03
   1281.0  5.70210e+03
   1282.0  5.71542e+03
   1283.0  5.72875e+03
   1284.0  5.74212e+03
   1285.0  5.75551e+03
   1286.0  5.76892e+03
   1287.0  5.78236e+03
   1288.0  5.79583e+03
   1289.0  5.80932e+03
   1290.0  5.82284e+03
   1291.0  5.83638e+03
   1292.0  5.84995e+03
   1293.0  5.86355e+03
   1294.0  5.87717e+03
   1295.0  5.89082e+03
   1296.0  5.90449e+03
   1297.0  5.91819e+03
   1298.0  5.93191e+03
   1299.0  5.94566e+03
   1300.0  5.95944e+03
   1301.0  5.97324e+03
   1302.0  5.98707e+03
   1303.0  6.00093e+03
   1304.0  6.01481e+03
   1305.0  6.02872e+03
   1306.0  6.04265e+03
   1307.0  6.05661e+03
   1308.0  6.07060e+03
   1309.0  6.08461e+03
   1310.0  6.09865e+03
   1311.0  6.11272e+03
   1312.0  6.12681e+03
   1313.0  6.14093e+03
   1314.0  6.15508e+03
   1315.0  6.16925e+03
   1316.0  6.18345e+03
   1317.0  6.19768e+03
   1318.0  6.21193e+03
   1319.0  6.22621e+03
   1320.0  6.24052e+03
   1321.0  6.25485e+03
   1322.0  6.26921e+03
   1323.0  6.28360e+03
   1324.0  6.29802e+03
   1325.0  6.31246e+03
   1326.0  6.32693e+03
   1327.0  6.34142e+03
   1328.0  6.35595e+03
   1329.0  6.37050e+03
   1330.0  6.38507e+03
   1331.0  6.39968e+03
   1332.0  6.41431e+03
   1333.0  6.42897e+03
   1334.0  6.44366e+03
   1335.0  6.45837e+03
   1336.0  6.47311e+03
   1337.0  6.48788e+03
   1338.0  6.50268e+03
   1339.0  6.51751e+03
   1340.0  6.53236e+03
   1341.0  6.54724e+03
   1342.0  6.56215e+03
   1343.0  6.57708e+03
   1344.0  6.59205e+03
   1345.0  6.60704e+03
   1346.0  6.62206e+03
   1347.0  6.63710e+03
   1348.0  6.65218e+03
   1349.0  6.66728e+03
   1350.0  6.68241e+03
   1351.0  6.69757e+03
   1352.0  6.71276e+03
   1353.0  6.72797e+03
   1354.0  6.74322e+03
   1355.0  6.75849e+03
   1356.0  6.77379e+03
   1357.0  6.78912e+03
   1358.0  6.80448e+03
   1359.0  6.81986e+03
   1360.0  6.83527e+03
   1361.0  6.85072e+03
   1362.0  6.86619e+03
   1363.0  6.88169e+03
   1364.0  6.89722e+03
   1365.0  6.91277e+03
   1366.0  6.92836e+03
   1367.0  6.94397e+03
   1368.0  6.95961e+03
   1369.0  6.97529e+03
   1370.0  6.99099e+03
   1371.0  7.00672e+03
   1372.0  7.02247e+03
   1373.0  7.03826e+03
   1374.0  7.05408e+03
   1375.0  7.06992e+03
   1376.0  7.08580e+03
   1377.0  7.10170e+03
   1378.0  7.11764e+03
   1379.0  7.13360e+03
   1380.0  7.14959e+03
   1381.0  7.16561e+03
   1382.0  7.18166e+03
   1383.0  7.19774e+03
   1384.0  7.21385e+03
   1385.0  7.22999e+03
   1386.0  7.24616e+03
   1387.0  7.26235e+03
   1388.0  7.27858e+03
   1389.0  7.29484e+03
   1390.0  7.31112e+03
   1391.0  7.32744e+03
   1392.0  7.34379e+03
   1393.0  7.36016e+03
   1394.0  7.37657e+03
   1395.0  7.39300e+03
   1396.0  7.40947e+03
   1397.0  7.42596e+03
   1398.0  7.44249e+03
   1399.0  7.45905e+03
   1400.0  7.47563e+03
   1401.0  7.49225e+03
   1402.0  7.50889e+03
   1403.0  7.52557e+03
   1404.0  7.54228e+03
   1405.0  7.55901e+03
   1406.0  7.57578e+03
   1407.0  7.59258e+03
   1408.0  7.60941e+03
   1409.0  7.62627e+03
   1410.0  7.64315e+03
   1411.0  7.66007e+03
   1412.0  7.67702e+03
   1413.0  7.69401e+03
   1414.0  7.71102e+03
   1415.0  7.72806e+03
   1416.0  7.74513e+03
   1417.0  7.76224e+03
   1418.0  7.77937e+03
   1419.0  7.79654e+03
   1420.0  7.81374e+03
   1421.0  7.83096e+03
   1422.0  7.84822e+03
   1423.0  7.86551e+03
   1424.0  7.88283e+03
   1425.0  7.90019e+03
   1426.0  7.91757e+03
   1427.0  7.93498e+03
   1428.0  7.95243e+03
   1429.0  7.96991e+03
   1430.0  7.98742e+03
   1431.0  8.00496e+03
   1432.0  8.02253e+03
   1433.0  8.04013e+03
   1434.0  8.05777e+03
   1435.0  8.07543e+03
   1436.0  8.09313e+03
   1437.0  8.11086e+03
   1438.0  8.12862e+03
   1439.0  8.14642e+03
   1440.0  8.16424e+03
   1441.0  8.18210e+03
   1442.0  8.19999e+03
   1443.0  8.21791e+03
   1444.0  8.23586e+03
   1445.0  8.25385e+03
   1446.0  8.27187e+03
   1447.0  8.28992e+03
   1448.0  8.30800e+03
   1449.0  8.32611e+03
   1450.0  8.34426e+03
   1451.0  8.36243e+03
   1452.0  8.38065e+03
   1453.0  8.39889e+03
   1454.0  8.41716e+03
   1455.0  8.43547e+03
   1456.0  8.45381e+03
   1457.0  8.47219e+03
   1458.0  8.49059e+03
   1459.0  8.50903e+03
   1460.0  8.52750e+03
   1461.0  8.54601e+03
   1462.0  8.56454e+03
   1463.0  8.58311e+03
   1464.0  8.60172e+03
   1465.0  8.62035e+03
   1466.0  8.63902e+03
   1467.0  8.65772e+03
   1468.0  8.67646e+03
   1469.0  8.69522e+03
   1470.0  8.71402e+03
   1471.0  8.73286e+03
   1472.0  8.75173e+03
   1473.0  8.77063e+03
   1474.0  8.78956e+03
   1475.0  8.80853e+03
   1476.0  8.82753e+03
   1477.0  8.84656e+03
   1478.0  8.86563e+03
   1479.0  8.88473e+03
   1480.0  8.90387e+03
   1481.0  8.92304e+03
   1482.0  8.94224e+03
   1483.0  8.96148e+03
   1484.0  8.98075e+03
   1485.0  9.00005e+03
   1486.0  9.01939e+03
   1487.0  9.03876e+03
   1488.0  9.05817e+03
   1489.0  9.07760e+03
   1490.0  9.09708e+03
   1491.0  9.11659e+03
   1492.0  9.13613e+03
   1493.0  9.15571e+03
   1494.0  9.17532e+03
   1495.0  9.19496e+03
   1496.0  9.21464e+03
   1497.0  9.23435e+03
   1498.0  9.25410e+03
   1499.0  9.27389e+03
   1500.0  9.29370e+03
   1501.0  9.31355e+03
   1502.0  9.33344e+03
   1503.0  9.35336e+03
   1504.0  9.37332e+03
   1505.0  9.39331e+03
   1506.0  9.41333e+03
   1507.0  9.43339e+03
   1508.0  9.45349e+03
   1509.0  9.47362e+03
   1510.0  9.49379e+03
   1511.0  9.51399e+03
   1512.0  9.53422e+03
   1513.0  9.55449e+03
   1514.0  9.57480e+03
   1515.0  9.59514e+03
   1516.0  9.61551e+03
   1517.0  9.63593e+03
   1518.0  9.65637e+03
   1519.0  9.67686e+03
   1520.0  9.69737e+03
   1521.0  9.71793e+03
   1522.0  9.73852e+03
   1523.0  9.75914e+03
   1524.0  9.77980e+03
   1525.0  9.80050e+03
   1526.0  9.82123e+03
   1527.0  9.84200e+03
   1528.0  9.86280e+03
   1529.0  9.88364e+03
   1530.0  9.90452e+03
   1531.0  9.92543e+03
   1532.0  9.94637e+03
   1533.0  9.96736e+03
   1534.0  9.98838e+03
   1535.0  1.00094e+04
   1536.0  1.00305e+04
   1537.0  1.00517e+04
   1538.0  1.00728e+04
   1539.0  1.00940e+04
   1540.0  1.01153e+04
   1541.0  1.01365e+04
   1542.0  1.01578e+04
   1543.0  1.01792e+04
   1544.0  1.02006e+04
   1545.0  1.02220e+04
   1546.0  1.02435e+04
   1547.0  1.02649e+04
   1548.0  1.02865e+04
   1549.0  1.03080e+04
   1550.0  1.03296e+04
   1551.0  1.03513e+04
   1552.0  1.03730e+04
   1553.0  1.03947e+04
   1554.0  1.04164e+04
   1555.0  1.04382e+04
   1556.0  1.04601e+04
   1557.0  1.04819e+04
   1558.0  1.05038e+04
   1559.0  1.05258e+04
   1560.0  1.05477e+04
   1561.0  1.05698e+04
   1562.0  1.05918e+04
   1563.0  1.06139e+04
   1564.0  1.06360e+04
   1565.0  1.06582e+04
   1566.0  1.06804e+04
   1567.0  1.07026e+04
   1568.0  1.07249e+04
   1569.0  1.07472e+04
   1570.0  1.07696e+04
   1571.0  1.07920e+04
   1572.0  1.08144e+04
   1573.0  1.08369e+04
   1574.0  1.08594e+04
   1575.0  1.08819e+04
   1576.0  1.09045e+04
   1577.0  1.09271e+04
   1578.0  1.09498e+04
   1579.0  1.09725e+04
   1580.0  1.09952e+04
   1581.0  1.10180e+04
   1582.0  1.10408e+04
   1583.0  1.10636e+04
   1584.0  1.10865e+04
   1585.0  1.11095e+04
   1586.0  1.11324e+04
   1587.0  1.11554e+04
   1588.0  1.11785e+04
   1589.0  1.12016e+04
   1590.0  1.12247e+04
   1591.0  1.12478e+04
   1592.0  1.12710e+04
   1593.0  1.12943e+04
   1594.0  1.13176e+04
   1595.0  1.13409e+04
   1596.0  1.13642e+04
   1597.0  1.13876e+04
   1598.0  1.14111e+04
   1599.0  1.14345e+04
   1600.0  1.14580e+04
   1601.0  1.14816e+04
   1602.0  1.15052e+04
   1603.0  1.15288e+04
   1604.0  1.15525e+04
   1605.0  1.15762e+04
   1606.0  1.16000e+04
   1607.0  1.16237e+04
   1608.0  1.16476e+04
   1609.0  1.16714e+04
   1610.0  1.16954e+04
   1611.0  1.17193e+04
   1612.0  1.17433e+04
   1613.0  1.17673e+04
   1614.0  1.17914e+04
   1615.0  1.18155e+04
   1616.0  1.18397e+04
   1617.0  1.18639e+04
   1618.0  1.18881e+04
   1619.0  1.19124e+04
   1620.0  1.19367e+04
   1621.0  1.19610e+04
   1622.0  1.19854e+04
   1623.0  1.20099e+04
   1624.0  1.20343e+04
   1625.0  1.20588e+04
   1626.0  1.20834e+04
   1627.0  1.21080e+04
   1628.0  1.21326e+04
   1629.0  1.21573e+04
   1630.0  1.21820e+04
   1631.0  1.22068e+04
   1632.0  1.22316e+04
   1633.0  1.22564e+04
   1634.0  1.22813e+04
   1635.0  1.23062e+04
   1636.0  1.23312e+04
   1637.0  1.23562e+04
   1638.0  1.23813e+04
   1639.0  1.24064e+04
   1640.0  1.24315e+04
   1641.0  1.24567e+04
   1642.0  1.24819e+04
   1643.0  1.25071e+04
   1644.0  1.25324e+04
   1645.0  1.25578e+04
   1646.0  1.25832e+04
   1647.0  1.26086e+04
   1648.0  1.26341e+04
   1649.0  1.26596e+04
   1650.0  1.26851e+04
   1651.0  1.27107e+04
   1652.0  1.27363e+04
   1653.0  1.27620e+04
   1654.0  1.27877e+04
   1655.0  1.28135e+04
   1656.0  1.28393e+04
   1657.0  1.28651e+04
   1658.0  1.28910e+04
   1659.0  1.29170e+04
   1660.0  1.29429e+04
   1661.0  1.29690e+04
   1662.0  1.29950e+04
   1663.0  1.30211e+04
   1664.0  1.30473e+04
   1665.0  1.30734e+04
   1666.0  1.30997e+04
   1667.0  1.31259e+04
   1668.0  1.31523e+04
   1669.0  1.31786e+04
   1670.0  1.32050e+04
   1671.0  1.32315e+04
   1672.0  1.32580e+04
   1673.0  1.32845e+04
   1674.0  1.33111e+04
   1675.0  1.33377e+04
   1676.0  1.33643e+04
   1677.0  1.33910e+04
   1678.0  1.34178e+04
   1679.0  1.34446e+04
   1680.0  1.34714e+04
   1681.0  1.34983e+04
   1682.0  1.35252e+04
   1683.0  1.35522e+04
   1684.0  1.35792e+04
   1685.0  1.36062e+04
   1686.0  1.36333e+04
   1687.0  1.36605e+04
   1688.0  1.36877e+04
   1689.0  1.37149e+04
   1690.0  1.37422e+04
   1691.0  1.37695e+04
   1692.0  1.37969e+04
   1693.0  1.38243e+04
   1694.0  1.38517e+04
   1695.0  1.38792e+04
   1696.0  1.39068e+04
   1697.0  1.39343e+04
   1698.0  1.39620e+04
   1699.0  1.39897e+04
   1700.0  1.40174e+04
   1701.0  1.40451e+04
   1702.0  1.40729e+04
   1703.0  1.41008e+04
   1704.0  1.41287e+04
   1705.0  1.41566e+04
   1706.0  1.41846e+04
   1707.0  1.42127e+04
   1708.0  1.42407e+04
   1709.0  1.42689e+04
   1710.0  1.42970e+04
   1711.0  1.43253e+04
   1712.0  1.43535e+04
   1713.0  1.43818e+04
   1714.0  1.44102e+04
   1715.0  1.44386e+04
   1716.0  1.44670e+04
   1717.0  1.44955e+04
   1718.0  1.45240e+04
   1719.0  1.45526e+04
   1720.0  1.45812e+04
   1721.0  1.46099e+04
   1722.0  1.46386e+04
   1723.0  1.46674e+04
   1724.0  1.46962e+04
   1725.0  1.47251e+04
   1726.0  1.47540e+04
   1727.0  1.47829e+04
   1728.0  1.48119e+04
   1729.0  1.48409e+04
   1730.0  1.48700e+04
   1731.0  1.48992e+04
   1732.0  1.49283e+04
   1733.0  1.49576e+04
   1734.0  1.49868e+04
   1735.0  1.50162e+04
   1736.0  1.50455e+04
   1737.0  1.50750e+04
   1738.0  1.51044e+04
   1739.0  1.51339e+04
   1740.0  1.51635e+04
   1741.0  1.51931e+04
   1742.0  1.52227e+04
   1743.0  1.52524e+04
   1744.0  1.52822e+04
   1745.0  1.53120e+04
   1746.0  1.53418e+04
   1747.0  1.53717e+04
   1748.0  1.54016e+04
   1749.0  1.54316e+04
   1750.0  1.54616e+04
   1751.0  1.54917e+04
   1752.0  1.55218e+04
   1753.0  1.55520e+04
   1754.0  1.55822e+04
   1755.0  1.56125e+04
   1756.0  1.56428e+04
   1757.0  1.56732e+04
   1758.0  1.57036e+04
   1759.0  1.57340e+04
   1760.0  1.57645e+04
   1761.0  1.57951e+04
   1762.0  1.58257e+04
   1763.0  1.58563e+04
   1764.0  1.58870e+04
   1765.0  1.59178e+04
   1766.0  1.59486e+04
   1767.0  1.59794e+04
   1768.0  1.60103e+04
   1769.0  1.60413e+04
   1770.0  1.60723e+04
   1771.0  1.61033e+04
   1772.0  1.61344e+04
   1773.0  1.61655e+04
   1774.0  1.61967e+04
   1775.0  1.62279e+04
   1776.0  1.62592e+04
   1777.0  1.62906e+04
   1778.0  1.63220e+04
   1779.0  1.63534e+04
   1780.0  1.63849e+04
   1781.0  1.64164e+04
   1782.0  1.64480e+04
   1783.0  1.64796e+04
   1784.0  1.65113e+04
   1785.0  1.65430e+04
   1786.0  1.65748e+04
   1787.0  1.66066e+04
   1788.0  1.66385e+04
   1789.0  1.66704e+04
   1790.0  1.67024e+04
   1791.0  1.67344e+04
   1792.0  1.67665e+04
   1793.0  1.67987e+04
   1794.0  1.68308e+04
   1795.0  1.68631e+04
   1796.0  1.68953e+04
   1797.0  1.69277e+04
   1798.0  1.69600e+04
   1799.0  1.69925e+04
   1800.0  1.70250e+04
   1801.0  1.70575e+04
   1802.0  1.70901e+04
   1803.0  1.71227e+04
   1804.0  1.71554e+04
   1805.0  1.71881e+04
   1806.0  1.72209e+04
   1807.0  1.72537e+04
   1808.0  1.72866e+04
   1809.0  1.73196e+04
   1810.0  1.73526e+04
   1811.0  1.73856e+04
   1812.0  1.74187e+04
   1813.0  1.74518e+04
   1814.0  1.74850e+04
   1815.0  1.75183e+04
   1816.0  1.75516e+04
   1817.0  1.75849e+04
   1818.0  1.76183e+04
   1819.0  1.76518e+04
   1820.0  1.76853e+04
   1821.0  1.77188e+04
   1822.0  1.77525e+04
   1823.0  1.77861e+04
   1824.0  1.78198e+04
   1825.0  1.78536e+04
   1826.0  1.78874e+04
   1827.0  1.79213e+04
   1828.0  1.79552e+04
   1829.0  1.79892e+04
   1830.0  1.80232e+04
   1831.0  1.80573e+04
   1832.0  1.80914e+04
   1833.0  1.81256e+04
   1834.0  1.81598e+04
   1835.0  1.81941e+04
   1836.0  1.82285e+04
   1837.0  1.82628e+04
   1838.0  1.82973e+04
   1839.0  1.83318e+04
   1840.0  1.83663e+04
   1841.0  1.84010e+04
   1842.0  1.84356e+04
   1843.0  1.84703e+04
   1844.0  1.85051e+04
   1845.0  1.85399e+04
   1846.0  1.85748e+04
   1847.0  1.86097e+04
   1848.0  1.86447e+04
   1849.0  1.86797e+04
   1850.0  1.87148e+04
   1851.0  1.87499e+04
   1852.0  1.87851e+04
   1853.0  1.88204e+04
   1854.0  1.88557e+04
   1855.0  1.88910e+04
   1856.0  1.89264e+04
   1857.0  1.89619e+04
   1858.0  1.89974e+04
   1859.0  1.90330e+04
   1860.0  1.90686e+04
   1861.0  1.91043e+04
   1862.0  1.91400e+04
   1863.0  1.91758e+04
   1864.0  1.92117e+04
   1865.0  1.92476e+04
   1866.0  1.92835e+04
   1867.0  1.93195e+04
   1868.0  1.93556e+04
   1869.0  1.93917e+04
   1870.0  1.94279e+04
   1871.0  1.94641e+04
   1872.0  1.95004e+04
   1873.0  1.95367e+04
   1874.0  1.95731e+04
   1875.0  1.96096e+04
   1876.0  1.96461e+04
   1877.0  1.96826e+04
   1878.0  1.97192e+04
   1879.0  1.97559e+04
   1880.0  1.97926e+04
   1881.0  1.98294e+04
   1882.0  1.98662e+04
   1883.0  1.99031e+04
   1884.0  1.99401e+04
   1885.0  1.99771e+04
   1886.0  2.00141e+04
   1887.0  2.00512e+04
   1888.0  2.00884e+04
   1889.0  2.01256e+04
   1890.0  2.01629e+04
   1891.0  2.02003e+04
   1892.0  2.02377e+04
   1893.0  2.02751e+04
   1894.0  2.03126e+04
   1895.0  2.03502e+04
   1896.0  2.03878e+04
   1897.0  2.04255e+04
   1898.0  2.04632e+04
   1899.0  2.05010e+04
   1900.0  2.05389e+04
   1901.0  2.05768e+04
   1902.0  2.06147e+04
   1903.0  2.06527e+04
   1904.0  2.06908e+04
   1905.0  2.07290e+04
   1906.0  2.07671e+04
   1907.0  2.08054e+04
   1908.0  2.08437e+04
   1909.0  2.08821e+04
   1910.0  2.09205e+04
   1911.0  2.09590e+04
   1912.0  2.09975e+04
   1913.0  2.10361e+04
   1914.0  2.10747e+04
   1915.0  2.11134e+04
   1916.0  2.11522e+04
   1917.0  2.11910e+04
   1918.0  2.12299e+04
   1919.0  2.12689e+04
   1920.0  2.13078e+04
   1921.0  2.13469e+04
   1922.0  2.13860e+04
   1923.0  2.14252e+04
   1924.0  2.14644e+04
   1925.0  2.15037e+04
   1926.0  2.15431e+04
   1927.0  2.15825e+04
   1928.0  2.16219e+04
   1929.0  2.16615e+04
   1930.0  2.17010e+04
   1931.0  2.17407e+04
   1932.0  2.17804e+04
   1933.0  2.18201e+04
   1934.0  2.18600e+04
   1935.0  2.18998e+04
   1936.0  2.19398e+04
   1937.0  2.19798e+04
   1938.0  2.20198e+04
   1939.0  2.20600e+04
   1940.0  2.21001e+04
   1941.0  2.21404e+04
   1942.0  2.21807e+04
   1943.0  2.22210e+04
   1944.0  2.22614e+04
   1945.0  2.23019e+04
   1946.0  2.23424e+04
   1947.0  2.23830e+04
   1948.0  2.24237e+04
   1949.0  2.24644e+04
   1950.0  2.25052e+04
   1951.0  2.25460e+04
   1952.0  2.25869e+04
   1953.0  2.26278e+04
   1954.0  2.26689e+04
   1955.0  2.27099e+04
   1956.0  2.27511e+04
   1957.0  2.27923e+04
   1958.0  2.28335e+04
   1959.0  2.28748e+04
   1960.0  2.29162e+04
   1961.0  2.29577e+04
   1962.0  2.29992e+04
   1963.0  2.30407e+04
   1964.0  2.30824e+04
   1965.0  2.31240e+04
   1966.0  2.31658e+04
   1967.0  2.32076e+04
   1968.0  2.32495e+04
   1969.0  2.32914e+04
   1970.0  2.33334e+04
   1971.0  2.33754e+04
   1972.0  2.34175e+04
   1973.0  2.34597e+04
   1974.0  2.35020e+04
   1975.0  2.35443e+04
   1976.0  2.35866e+04
   1977.0  2.36291e+04
   1978.0  2.36715e+04
   1979.0  2.37141e+04
   1980.0  2.37567e+04
   1981.0  2.37994e+04
   1982.0  2.38421e+04
   1983.0  2.38849e+04
   1984.0  2.39278e+04
   1985.0  2.39707e+04
   1986.0  2.40137e+04
   1987.0  2.40567e+04
   1988.0  2.40998e+04
   1989.0  2.41430e+04
   1990.0  2.41862e+04
   1991.0  2.42295e+04
   1992.0  2.42729e+04
   1993.0  2.43163e+04
   1994.0  2.43598e+04
   1995.0  2.44034e+04
   1996.0  2.44470e+04
   1997.0  2.44907e+04
   1998.0  2.45344e+04
   1999.0  2.45782e+04
   2000.0  2.46221e+04
   2001.0  2.46660e+04
   2002.0  2.47100e+04
   2003.0  2.47541e+04
   2004.0  2.47982e+04
   2005.0  2.48424e+04
   2006.0  2.48866e+04
   2007.0  2.49310e+04
   2008.0  2.49753e+04
   2009.0  2.50198e+04
   2010.0  2.50643e+04
   2011.0  2.51089e+04
   2012.0  2.51535e+04
   2013.0  2.51982e+04
   2014.0  2.52430e+04
   2015.0  2.52878e+04
   2016.0  2.53327e+04
   2017.0  2.53777e+04
   2018.0  2.54227e+04
   2019.0  2.54678e+04
   2020.0  2.55130e+04
   2021.0  2.55582e+04
   2022.0  2.56035e+04
   2023.0  2.56488e+04
   2024.0  2.56942e+04
   2025.0  2.57397e+04
   2026.0  2.57853e+04
   2027.0  2.58309e+04
   2028.0  2.58766e+04
   2029.0  2.59223e+04
   2030.0  2.59681e+04
   2031.0  2.60140e+04
   2032.0  2.60600e+04
   2033.0  2.61060e+04
   2034.0  2.61520e+04
   2035.0  2.61982e+04
   2036.0  2.62444e+04
   2037.0  2.62907e+04
   2038.0  2.63370e+04
   2039.0  2.63834e+04
   2040.0  2.64299e+04
   2041.0  2.64764e+04
   2042.0  2.65230e+04
   2043.0  2.65697e+04
   2044.0  2.66165e+04
   2045.0  2.66633e+04
   2046.0  2.67101e+04
   2047.0  2.67571e+04
   2048.0  2.68041e+04
   2049.0  2.68512e+04
   2050.0  2.68983e+04
   2051.0  2.69455e+04
   2052.0  2.69928e+04
   2053.0  2.70401e+04
   2054.0  2.70875e+04
   2055.0  2.71350e+04
   2056.0  2.71826e+04
   2057.0  2.72302e+04
   2058.0  2.72779e+04
   2059.0  2.73256e+04
   2060.0  2.73734e+04
   2061.0  2.74213e+04
   2062.0  2.74693e+04
   2063.0  2.75173e+04
   2064.0  2.75654e+04
   2065.0  2.76136e+04
   2066.0  2.76618e+04
   2067.0  2.77101e+04
   2068.0  2.77585e+04
   2069.0  2.78069e+04
   2070.0  2.78554e+04
   2071.0  2.79040e+04
   2072.0  2.79526e+04
   2073.0  2.80013e+04
   2074.0  2.80501e+04
   2075.0  2.80990e+04
   2076.0  2.81479e+04
   2077.0  2.81969e+04
   2078.0  2.82459e+04
   2079.0  2.82950e+04
   2080.0  2.83442e+04
   2081.0  2.83935e+04
   2082.0  2.84428e+04
   2083.0  2.84922e+04
   2084.0  2.85417e+04
   2085.0  2.85913e+04
   2086.0  2.86409e+04
   2087.0  2.86905e+04
   2088.0  2.87403e+04
   2089.0  2.87901e+04
   2090.0  2.88400e+04
   2091.0  2.88900e+04
   2092.0  2.89400e+04
   2093.0  2.89901e+04
   2094.0  2.90403e+04
   2095.0  2.90905e+04
   2096.0  2.91409e+04
   2097.0  2.91912e+04
   2098.0  2.92417e+04
   2099.0  2.92922e+04
   2100.0  2.93428e+04
   2101.0  2.93935e+04
   2102.0  2.94442e+04
   2103.0  2.94951e+04
   2104.0  2.95459e+04
   2105.0  2.95969e+04
   2106.0  2.96479e+04
   2107.0  2.96990e+04
   2108.0  2.97502e+04
   2109.0  2.98014e+04
   2110.0  2.98528e+04
   2111.0  2.99041e+04
   2112.0  2.99556e+04
   2113.0  3.00071e+04
   2114.0  3.00587e+04
   2115.0  3.01104e+04
   2116.0  3.01622e+04
   2117.0  3.02140e+04
   2118.0  3.02659e+04
   2119.0  3.03178e+04
   2120.0  3.03699e+04
   2121.0  3.04220e+04
   2122.0  3.04742e+04
   2123.0  3.05264e+04
   2124.0  3.05787e+04
   2125.0  3.06311e+04
   2126.0  3.06836e+04
   2127.0  3.07361e+04
   2128.0  3.07888e+04
   2129.0  3.08415e+04
   2130.0  3.08942e+04
   2131.0  3.09471e+04
   2132.0  3.10000e+04
   2133.0  3.10530e+04
   2134.0  3.11060e+04
   2135.0  3.11592e+04
   2136.0  3.12124e+04
   2137.0  3.12656e+04
   2138.0  3.13190e+04
   2139.0  3.13724e+04
   2140.0  3.14259e+04
   2141.0  3.14795e+04
   2142.0  3.15332e+04
   2143.0  3.15869e+04
   2144.0  3.16407e+04
   2145.0  3.16946e+04
   2146.0  3.17485e+04
   2147.0  3.18025e+04
   2148.0  3.18566e+04
   2149.0  3.19108e+04
   2150.0  3.19650e+04
   2151.0  3.20194e+04
   2152.0  3.20738e+04
   2153.0  3.21282e+04
   2154.0  3.21828e+04
   2155.0  3.22374e+04
   2156.0  3.22921e+04
   2157.0  3.23469e+04
   2158.0  3.24017e+04
   2159.0  3.24567e+04
   2160.0  3.25117e+04
   2161.0  3.25667e+04
   2162.0  3.26219e+04
   2163.0  3.26771e+04
   2164.0  3.27324e+04
   2165.0  3.27878e+04
   2166.0  3.28432e+04
   2167.0  3.28988e+04
   2168.0  3.29544e+04
   2169.0  3.30101e+04
   2170.0  3.30658e+04
   2171.0  3.31217e+04
   2172.0  3.31776e+04
   2173.0  3.32336e+04
   2174.0  3.32896e+04
   2175.0  3.33458e+04
   2176.0  3.34020e+04
   2177.0  3.34583e+04
   2178.0  3.35147e+04
   2179.0  3.35711e+04
   2180.0  3.36277e+04
   2181.0  3.36843e+04
   2182.0  3.37410e+04
   2183.0  3.37977e+04
   2184.0  3.38546e+04
   2185.0  3.39115e+04
   2186.0  3.39685e+04
   2187.0  3.40255e+04
   2188.0  3.40827e+04
   2189.0  3.41399e+04
   2190.0  3.41972e+04
   2191.0  3.42546e+04
   2192.0  3.43121e+04
   2193.0  3.43696e+04
   2194.0  3.44272e+04
   2195.0  3.44849e+04
   2196.0  3.45427e+04
   2197.0  3.46006e+04
   2198.0  3.46585e+04
   2199.0  3.47165e+04
   2200.0  3.47746e+04
   2201.0  3.48328e+04
   2202.0  3.48910e+04
   2203.0  3.49494e+04
   2204.0  3.50078e+04
   2205.0  3.50663e+04
   2206.0  3.51248e+04
   2207.0  3.51835e+04
   2208.0  3.52422e+04
   2209.0  3.53010e+04
   2210.0  3.53599e+04
   2211.0  3.54189e+04
   2212.0  3.54779e+04
   2213.0  3.55370e+04
   2214.0  3.55962e+04
   2215.0  3.56555e+04
   2216.0  3.57149e+04
   2217.0  3.57743e+04
   2218.0  3.58339e+04
   2219.0  3.58935e+04
   2220.0  3.59531e+04
   2221.0  3.60129e+04
   2222.0  3.60728e+04
   2223.0  3.61327e+04
   2224.0  3.61927e+04
   2225.0  3.62528e+04
   2226.0  3.63130e+04
   2227.0  3.63732e+04
   2228.0  3.64335e+04
   2229.0  3.64940e+04
   2230.0  3.65545e+04
   2231.0  3.66150e+04
   2232.0  3.66757e+04
   2233.0  3.67364e+04
   2234.0  3.67973e+04
   2235.0  3.68582e+04
   2236.0  3.69192e+04
   2237.0  3.69802e+04
   2238.0  3.70414e+04
   2239.0  3.71026e+04
   2240.0  3.71639e+04
   2241.0  3.72253e+04
   2242.0  3.72868e+04
   2243.0  3.73484e+04
   2244.0  3.74100e+04
   2245.0  3.74717e+04
   2246.0  3.75335e+04
   2247.0  3.75954e+04
   2248.0  3.76574e+04
   2249.0  3.77195e+04
   2250.0  3.77816e+04
   2251.0  3.78438e+04
   2252.0  3.79061e+04
   2253.0  3.79685e+04
   2254.0  3.80310e+04
   2255.0  3.80936e+04
   2256.0  3.81562e+04
   2257.0  3.82189e+04
   2258.0  3.82817e+04
   2259.0  3.83446e+04
   2260.0  3.84076e+04
   2261.0  3.84707e+04
   2262.0  3.85338e+04
   2263.0  3.85970e+04
   2264.0  3.86603e+04
   2265.0  3.87237e+04
   2266.0  3.87872e+04
   2267.0  3.88508e+04
   2268.0  3.89144e+04
   2269.0  3.89782e+04
   2270.0  3.90420e+04
   2271.0  3.91059e+04
   2272.0  3.91699e+04
   2273.0  3.92339e+04
   2274.0  3.92981e+04
   2275.0  3.93623e+04
   2276.0  3.94267e+04
   2277.0  3.94911e+04
   2278.0  3.95556e+04
   2279.0  3.96202e+04
   2280.0  3.96848e+04
   2281.0  3.97496e+04
   2282.0  3.98144e+04
   2283.0  3.98794e+04
   2284.0  3.99444e+04
   2285.0  4.00095e+04
   2286.0  4.00747e+04
   2287.0  4.01399e+04
   2288.0  4.02053e+04
   2289.0  4.02708e+04
   2290.0  4.03363e+04
   2291.0  4.04019e+04
   2292.0  4.04676e+04
   2293.0  4.05334e+04
   2294.0  4.05993e+04
   2295.0  4.06652e+04
   2296.0  4.07313e+04
   2297.0  4.07974e+04
   2298.0  4.08637e+04
   2299.0  4.09300e+04
   2300.0  4.09964e+04
   2301.0  4.10629e+04
   2302.0  4.11294e+04
   2303.0  4.11961e+04
   2304.0  4.12628e+04
   2305.0  4.13297e+04
   2306.0  4.13966e+04
   2307.0  4.14636e+04
   2308.0  4.15307e+04
   2309.0  4.15979e+04
   2310.0  4.16652e+04
   2311.0  4.17326e+04
   2312.0  4.18000e+04
   2313.0  4.18676e+04
   2314.0  4.19352e+04
   2315.0  4.20029e+04
   2316.0  4.20707e+04
   2317.0  4.21386e+04
   2318.0  4.22066e+04
   2319.0  4.22747e+04
   2320.0  4.23429e+04
   2321.0  4.24111e+04
   2322.0  4.24794e+04
   2323.0  4.25479e+04
   2324.0  4.26164e+04
   2325.0  4.26850e+04
   2326.0  4.27537e+04
   2327.0  4.28225e+04
   2328.0  4.28914e+04
   2329.0  4.29604e+04
   2330.0  4.30294e+04
   2331.0  4.30986e+04
   2332.0  4.31678e+04
   2333.0  4.32371e+04
   2334.0  4.33066e+04
   2335.0  4.33761e+04
   2336.0  4.34457e+04
   2337.0  4.35154e+04
   2338.0  4.35852e+04
   2339.0  4.36550e+04
   2340.0  4.37250e+04
   2341.0  4.37950e+04
   2342.0  4.38652e+04
   2343.0  4.39354e+04
   2344.0  4.40058e+04
   2345.0  4.40762e+04
   2346.0  4.41467e+04
   2347.0  4.42173e+04
   2348.0  4.42880e+04
   2349.0  4.43588e+04
   2350.0  4.44297e+04
   2351.0  4.45006e+04
   2352.0  4.45717e+04
   2353.0  4.46428e+04
   2354.0  4.47141e+04
   2355.0  4.47854e+04
   2356.0  4.48569e+04
   2357.0  4.49284e+04
   2358.0  4.50000e+04
   2359.0  4.50717e+04
   2360.0  4.51435e+04
   2361.0  4.52154e+04
   2362.0  4.52874e+04
   2363.0  4.53595e+04
   2364.0  4.54316e+04
   2365.0  4.55039e+04
   2366.0  4.55763e+04
   2367.0  4.56487e+04
   2368.0  4.57212e+04
   2369.0  4.57939e+04
   2370.0  4.58666e+04
   2371.0  4.59394e+04
   2372.0  4.60124e+04
   2373.0  4.60854e+04
   2374.0  4.61585e+04
   2375.0  4.62317e+04
   2376.0  4.63050e+04
   2377.0  4.63784e+04
   2378.0  4.64519e+04
   2379.0  4.65254e+04
   2380.0  4.65991e+04
   2381.0  4.66729e+04
   2382.0  4.67467e+04
   2383.0  4.68207e+04
   2384.0  4.68947e+04
   2385.0  4.69689e+04
   2386.0  4.70431e+04
   2387.0  4.71175e+04
   2388.0  4.71919e+04
   2389.0  4.72664e+04
   2390.0  4.73410e+04
   2391.0  4.74158e+04
   2392.0  4.74906e+04
   2393.0  4.75655e+04
   2394.0  4.76405e+04
   2395.0  4.77156e+04
   2396.0  4.77908e+04
   2397.0  4.78661e+04
   2398.0  4.79415e+04
   2399.0  4.80169e+04
   2400.0  4.80925e+04
   2401.0  4.81682e+04
   2402.0  4.82440e+04
   2403.0  4.83198e+04
   2404.0  4.83958e+04
   2405.0  4.84719e+04
   2406.0  4.85480e+04
   2407.0  4.86243e+04
   2408.0  4.87006e+04
   2409.0  4.87771e+04
   2410.0  4.88536e+04
   2411.0  4.89303e+04
   2412.0  4.90070e+04
   2413.0  4.90839e+04
   2414.0  4.91608e+04
   2415.0  4.92378e+04
   2416.0  4.93150e+04
   2417.0  4.93922e+04
   2418.0  4.94695e+04
   2419.0  4.95470e+04
   2420.0  4.96245e+04
   2421.0  4.97021e+04
   2422.0  4.97798e+04
   2423.0  4.98577e+04
   2424.0  4.99356e+04
   2425.0  5.00136e+04
   2426.0  5.00917e+04
   2427.0  5.01699e+04
   2428.0  5.02482e+04
   2429.0  5.03267e+04
   2430.0  5.04052e+04
   2431.0  5.04838e+04
   2432.0  5.05625e+04
   2433.0  5.06413e+04
   2434.0  5.07202e+04
   2435.0  5.07992e+04
   2436.0  5.08783e+04
   2437.0  5.09575e+04
   2438.0  5.10368e+04
   2439.0  5.11163e+04
   2440.0  5.11958e+04
   2441.0  5.12754e+04
   2442.0  5.13551e+04
   2443.0  5.14349e+04
   2444.0  5.15148e+04
   2445.0  5.15948e+04
   2446.0  5.16749e+04
   2447.0  5.17551e+04
   2448.0  5.18354e+04
   2449.0  5.19159e+04
   2450.0  5.19964e+04
   2451.0  5.20770e+04
   2452.0  5.21577e+04
   2453.0  5.22385e+04
   2454.0  5.23194e+04
   2455.0  5.24005e+04
   2456.0  5.24816e+04
   2457.0  5.25628e+04
   2458.0  5.26441e+04
   2459.0  5.27256e+04
   2460.0  5.28071e+04
   2461.0  5.28887e+04
   2462.0  5.29704e+04
   2463.0  5.30523e+04
   2464.0  5.31342e+04
   2465.0  5.32163e+04
   2466.0  5.32984e+04
   2467.0  5.33807e+04
   2468.0  5.34630e+04
   2469.0  5.35454e+04
   2470.0  5.36280e+04
   2471.0  5.37107e+04
   2472.0  5.37934e+04
   2473.0  5.38763e+04
   2474.0  5.39592e+04
   2475.0  5.40423e+04
   2476.0  5.41255e+04
   2477.0  5.42088e+04
   2478.0  5.42921e+04
   2479.0  5.43756e+04
   2480.0  5.44592e+04
   2481.0  5.45429e+04
   2482.0  5.46267e+04
   2483.0  5.47106e+04
   2484.0  5.47946e+04
   2485.0  5.48787e+04
   2486.0  5.49629e+04
   2487.0  5.50473e+04
   2488.0  5.51317e+04
   2489.0  5.52162e+04
   2490.0  5.53008e+04
   2491.0  5.53856e+04
   2492.0  5.54704e+04
   2493.0  5.55554e+04
   2494.0  5.56404e+04
   2495.0  5.57256e+04
   2496.0  5.58108e+04
   2497.0  5.58962e+04
   2498.0  5.59817e+04
   2499.0  5.60673e+04
   2500.0  5.61529e+04
   2501.0  5.62387e+04
   2502.0  5.63246e+04
   2503.0  5.64106e+04
   2504.0  5.64968e+04
   2505.0  5.65830e+04
   2506.0  5.66693e+04
   2507.0  5.67557e+04
   2508.0  5.68423e+04
   2509.0  5.69289e+04
   2510.0  5.70156e+04
   2511.0  5.71025e+04
   2512.0  5.71895e+04
   2513.0  5.72765e+04
   2514.0  5.73637e+04
   2515.0  5.74510e+04
   2516.0  5.75384e+04
   2517.0  5.76259e+04
   2518.0  5.77135e+04
   2519.0  5.78012e+04
   2520.0  5.78890e+04
   2521.0  5.79770e+04
   2522.0  5.80650e+04
   2523.0  5.81532e+04
   2524.0  5.82414e+04
   2525.0  5.83298e+04
   2526.0  5.84182e+04
   2527.0  5.85068e+04
   2528.0  5.85955e+04
   2529.0  5.86843e+04
   2530.0  5.87732e+04
   2531.0  5.88622e+04
   2532.0  5.89514e+04
   2533.0  5.90406e+04
   2534.0  5.91299e+04
   2535.0  5.92194e+04
   2536.0  5.93089e+04
   2537.0  5.93986e+04
   2538.0  5.94884e+04
   2539.0  5.95783e+04
   2540.0  5.96683e+04
   2541.0  5.97584e+04
   2542.0  5.98486e+04
   2543.0  5.99389e+04
   2544.0  6.00294e+04
   2545.0  6.01199e+04
   2546.0  6.02106e+04
   2547.0  6.03014e+04
   2548.0  6.03922e+04
   2549.0  6.04832e+04
   2550.0  6.05743e+04
   2551.0  6.06655e+04
   2552.0  6.07569e+04
   2553.0  6.08483e+04
   2554.0  6.09398e+04
   2555.0  6.10315e+04
   2556.0  6.11233e+04
   2557.0  6.12152e+04
   2558.0  6.13071e+04
   2559.0  6.13992e+04
   2560.0  6.14915e+04
   2561.0  6.15838e+04
   2562.0  6.16762e+04
   2563.0  6.17688e+04
   2564.0  6.18614e+04
   2565.0  6.19542e+04
   2566.0  6.20471e+04
   2567.0  6.21401e+04
   2568.0  6.22332e+04
   2569.0  6.23265e+04
   2570.0  6.24198e+04
   2571.0  6.25132e+04
   2572.0  6.26068e+04
   2573.0  6.27005e+04
   2574.0  6.27943e+04
   2575.0  6.28882e+04
   2576.0  6.29822e+04
   2577.0  6.30763e+04
   2578.0  6.31706e+04
   2579.0  6.32649e+04
   2580.0  6.33594e+04
   2581.0  6.34540e+04
   2582.0  6.35487e+04
   2583.0  6.36435e+04
   2584.0  6.37384e+04
   2585.0  6.38335e+04
   2586.0  6.39286e+04
   2587.0  6.40239e+04
   2588.0  6.41193e+04
   2589.0  6.42148e+04
   2590.0  6.43104e+04
   2591.0  6.44061e+04
   2592.0  6.45020e+04
   2593.0  6.45979e+04
   2594.0  6.46940e+04
   2595.0  6.47902e+04
   2596.0  6.48865e+04
   2597.0  6.49829e+04
   2598.0  6.50795e+04
   2599.0  6.51761e+04
   2600.0  6.52729e+04
   2601.0  6.53698e+04
   2602.0  6.54668e+04
   2603.0  6.55639e+04
   2604.0  6.56611e+04
   2605.0  6.57585e+04
   2606.0  6.58560e+04
   2607.0  6.59536e+04
   2608.0  6.60513e+04
   2609.0  6.61491e+04
   2610.0  6.62470e+04
   2611.0  6.63451e+04
   2612.0  6.64432e+04
   2613.0  6.65415e+04
   2614.0  6.66399e+04
   2615.0  6.67384e+04
   2616.0  6.68371e+04
   2617.0  6.69358e+04
   2618.0  6.70347e+04
   2619.0  6.71337e+04
   2620.0  6.72328e+04
   2621.0  6.73320e+04
   2622.0  6.74314e+04
   2623.0  6.75308e+04
   2624.0  6.76304e+04
   2625.0  6.77301e+04
   2626.0  6.78299e+04
   2627.0  6.79299e+04
   2628.0  6.80299e+04
   2629.0  6.81301e+04
   2630.0  6.82304e+04
   2631.0  6.83308e+04
   2632.0  6.84313e+04
   2633.0  6.85320e+04
   2634.0  6.86328e+04
   2635.0  6.87336e+04
   2636.0  6.88347e+04
   2637.0  6.89358e+04
   2638.0  6.90370e+04
   2639.0  6.91384e+04
   2640.0  6.92399e+04
   2641.0  6.93415e+04
   2642.0  6.94432e+04
   2643.0  6.95451e+04
   2644.0  6.96470e+04
   2645.0  6.97491e+04
   2646.0  6.98514e+04
   2647.0  6.99537e+04
   2648.0  7.00561e+04
   2649.0  7.01587e+04
   2650.0  7.02614e+04
   2651.0  7.03642e+04
   2652.0  7.04672e+04
   2653.0  7.05702e+04
   2654.0  7.06734e+04
   2655.0  7.07767e+04
   2656.0  7.08801e+04
   2657.0  7.09837e+04
   2658.0  7.10873e+04
   2659.0  7.11911e+04
   2660.0  7.12950e+04
   2661.0  7.13991e+04
   2662.0  7.15032e+04
   2663.0  7.16075e+04
   2664.0  7.17119e+04
   2665.0  7.18164e+04
   2666.0  7.19211e+04
   2667.0  7.20258e+04
   2668.0  7.21307e+04
   2669.0  7.22357e+04
   2670.0  7.23409e+04
   2671.0  7.24461e+04
   2672.0  7.25515e+04
   2673.0  7.26570e+04
   2674.0  7.27627e+04
   2675.0  7.28684e+04
   2676.0  7.29743e+04
   2677.0  7.30803e+04
   2678.0  7.31864e+04
   2679.0  7.32927e+04
   2680.0  7.33991e+04
   2681.0  7.35056e+04
   2682.0  7.36122e+04
   2683.0  7.37189e+04
   2684.0  7.38258e+04
   2685.0  7.39328e+04
   2686.0  7.40399e+04
   2687.0  7.41472e+04
   2688.0  7.42546e+04
   2689.0  7.43621e+04
   2690.0  7.44697e+04
   2691.0  7.45774e+04
   2692.0  7.46853e+04
   2693.0  7.47933e+04
   2694.0  7.49014e+04
   2695.0  7.50097e+04
   2696.0  7.51181e+04
   2697.0  7.52266e+04
   2698.0  7.53352e+04
   2699.0  7.54440e+04
   2700.0  7.55528e+04
   2701.0  7.56618e+04
   2702.0  7.57710e+04
   2703.0  7.58802e+04
   2704.0  7.59896e+04
   2705.0  7.60992e+04
   2706.0  7.62088e+04
   2707.0  7.63186e+04
   2708.0  7.64285e+04
   2709.0  7.65385e+04
   2710.0  7.66486e+04
   2711.0  7.67589e+04
   2712.0  7.68693e+04
   2713.0  7.69799e+04
   2714.0  7.70905e+04
   2715.0  7.72013e+04
   2716.0  7.73122e+04
   2717.0  7.74233e+04
   2718.0  7.75345e+04
   2719.0  7.76458e+04
   2720.0  7.77572e+04
   2721.0  7.78688e+04
   2722.0  7.79805e+04
   2723.0  7.80923e+04
   2724.0  7.82042e+04
   2725.0  7.83163e+04
   2726.0  7.84285e+04
   2727.0  7.85409e+04
   2728.0  7.86533e+04
   2729.0  7.87659e+04
   2730.0  7.88786e+04
   2731.0  7.89915e+04
   2732.0  7.91045e+04
   2733.0  7.92176e+04
   2734.0  7.93308e+04
   2735.0  7.94442e+04
   2736.0  7.95577e+04
   2737.0  7.96714e+04
   2738.0  7.97851e+04
   2739.0  7.98990e+04
   2740.0  8.00130e+04
   2741.0  8.01272e+04
   2742.0  8.02415e+04
   2743.0  8.03559e+04
   2744.0  8.04705e+04
   2745.0  8.05851e+04
   2746.0  8.07000e+04
   2747.0  8.08149e+04
   2748.0  8.09300e+04
   2749.0  8.10452e+04
   2750.0  8.11605e+04
   2751.0  8.12760e+04
   2752.0  8.13916e+04
   2753.0  8.15073e+04
   2754.0  8.16232e+04
   2755.0  8.17392e+04
   2756.0  8.18553e+04
   2757.0  8.19716e+04
   2758.0  8.20880e+04
   2759.0  8.22045e+04
   2760.0  8.23212e+04
   2761.0  8.24380e+04
   2762.0  8.25549e+04
   2763.0  8.26720e+04
   2764.0  8.27892e+04
   2765.0  8.29065e+04
   2766.0  8.30240e+04
   2767.0  8.31416e+04
   2768.0  8.32593e+04
   2769.0  8.33772e+04
   2770.0  8.34952e+04
   2771.0  8.36133e+04
   2772.0  8.37316e+04
   2773.0  8.38500e+04
   2774.0  8.39685e+04
   2775.0  8.40872e+04
   2776.0  8.42060e+04
   2777.0  8.43250e+04
   2778.0  8.44440e+04
   2779.0  8.45632e+04
   2780.0  8.46826e+04
   2781.0  8.48021e+04
   2782.0  8.49217e+04
   2783.0  8.50414e+04
   2784.0  8.51613e+04
   2785.0  8.52814e+04
   2786.0  8.54015e+04
   2787.0  8.55218e+04
   2788.0  8.56422e+04
   2789.0  8.57628e+04
   2790.0  8.58835e+04
   2791.0  8.60044e+04
   2792.0  8.61253e+04
   2793.0  8.62464e+04
   2794.0  8.63677e+04
   2795.0  8.64891e+04
   2796.0  8.66106e+04
   2797.0  8.67323e+04
   2798.0  8.68541e+04
   2799.0  8.69760e+04
   2800.0  8.70981e+04
   2801.0  8.72203e+04
   2802.0  8.73426e+04
   2803.0  8.74651e+04
   2804.0  8.75877e+04
   2805.0  8.77105e+04
   2806.0  8.78334e+04
   2807.0  8.79564e+04
   2808.0  8.80796e+04
   2809.0  8.82029e+04
   2810.0  8.83264e+04
   2811.0  8.84500e+04
   2812.0  8.85737e+04
   2813.0  8.86976e+04
   2814.0  8.88216e+04
   2815.0  8.89457e+04
   2816.0  8.90700e+04
   2817.0  8.91944e+04
   2818.0  8.93190e+04
   2819.0  8.94437e+04
   2820.0  8.95686e+04
   2821.0  8.96935e+04
   2822.0  8.98187e+04
   2823.0  8.99439e+04
   2824.0  9.00693e+04
   2825.0  9.01949e+04
   2826.0  9.03206e+04
   2827.0  9.04464e+04
   2828.0  9.05723e+04
   2829.0  9.06985e+04
   2830.0  9.08247e+04
   2831.0  9.09511e+04
   2832.0  9.10776e+04
   2833.0  9.12043e+04
   2834.0  9.13311e+04
   2835.0  9.14580e+04
   2836.0  9.15851e+04
   2837.0  9.17124e+04
   2838.0  9.18398e+04
   2839.0  9.19673e+04
   2840.0  9.20949e+04
   2841.0  9.22227e+04
   2842.0  9.23507e+04
   2843.0  9.24788e+04
   2844.0  9.26070e+04
   2845.0  9.27354e+04
   2846.0  9.28639e+04
   2847.0  9.29925e+04
   2848.0  9.31213e+04
   2849.0  9.32503e+04
   2850.0  9.33794e+04
   2851.0  9.35086e+04
   2852.0  9.36380e+04
   2853.0  9.37675e+04
   2854.0  9.38971e+04
   2855.0  9.40269e+04
   2856.0  9.41569e+04
   2857.0  9.42870e+04
   2858.0  9.44172e+04
   2859.0  9.45476e+04
   2860.0  9.46781e+04
   2861.0  9.48088e+04
   2862.0  9.49396e+04
   2863.0  9.50705e+04
   2864.0  9.52016e+04
   2865.0  9.53329e+04
   2866.0  9.54643e+04
   2867.0  9.55958e+04
   2868.0  9.57275e+04
   2869.0  9.58593e+04
   2870.0  9.59913e+04
   2871.0  9.61234e+04
   2872.0  9.62557e+04
   2873.0  9.63881e+04
   2874.0  9.65206e+04
   2875.0  9.66533e+04
   2876.0  9.67862e+04
   2877.0  9.69191e+04
   2878.0  9.70523e+04
   2879.0  9.71856e+04
   2880.0  9.73190e+04
   2881.0  9.74526e+04
   2882.0  9.75863e+04
   2883.0  9.77202e+04
   2884.0  9.78542e+04
   2885.0  9.79883e+04
   2886.0  9.81226e+04
   2887.0  9.82571e+04
   2888.0  9.83917e+04
   2889.0  9.85265e+04
   2890.0  9.86614e+04
   2891.0  9.87964e+04
   2892.0  9.89316e+04
   2893.0  9.90670e+04
   2894.0  9.92024e+04
   2895.0  9.93381e+04
   2896.0  9.94739e+04
   2897.0  9.96098e+04
   2898.0  9.97459e+04
   2899.0  9.98821e+04
   2900.0  1.00019e+05
   2901.0  1.00155e+05
   2902.0  1.00292e+05
   2903.0  1.00429e+05
   2904.0  1.00566e+05
   2905.0  1.00703e+05
   2906.0  1.00840e+05
   2907.0  1.00977e+05
   2908.0  1.01115e+05
   2909.0  1.01253e+05
   2910.0  1.01391e+05
   2911.0  1.01529e+05
   2912.0  1.01667e+05
   2913.0  1.01805e+05
   2914.0  1.01944e+05
   2915.0  1.02082e+05
   2916.0  1.02221e+05
   2917.0  1.02360e+05
   2918.0  1.02499e+05
   2919.0  1.02638e+05
   2920.0  1.02778e+05
   2921.0  1.02917e+05
   2922.0  1.03057e+05
   2923.0  1.03197e+05
   2924.0  1.03337e+05
   2925.0  1.03477e+05
   2926.0  1.03617e+05
   2927.0  1.03758e+05
   2928.0  1.03898e+05
   2929.0  1.04039e+05
   2930.0  1.04180e+05
   2931.0  1.04321e+05
   2932.0  1.04462e+05
   2933.0  1.04603e+05
   2934.0  1.04745e+05
   2935.0  1.04887e+05
   2936.0  1.05028e+05
   2937.0  1.05170e+05
   2938.0  1.05312e+05
   2939.0  1.05455e+05
   2940.0  1.05597e+05
   2941.0  1.05740e+05
   2942.0  1.05882e+05
   2943.0  1.06025e+05
   2944.0  1.06168e+05
   2945.0  1.06312e+05
   2946.0  1.06455e+05
   2947.0  1.06598e+05
   2948.0  1.06742e+05
   2949.0  1.06886e+05
   2950.0  1.07030e+05
   2951.0  1.07174e+05
   2952.0  1.07318e+05
   2953.0  1.07463e+05
   2954.0  1.07607e+05
   2955.0  1.07752e+05
   2956.0  1.07897e+05
   2957.0  1.08042e+05
   2958.0  1.08187e+05
   2959.0  1.08333e+05
   2960.0  1.08478e+05
   2961.0  1.08624e+05
   2962.0  1.08770e+05
   2963.0  1.08916e+05
   2964.0  1.09062e+05
   2965.0  1.09208e+05
   2966.0  1.09355e+05
   2967.0  1.09501e+05
   2968.0  1.09648e+05
   2969.0  1.09795e+05
   2970.0  1.09942e+05
   2971.0  1.10089e+05
   2972.0  1.10237e+05
   2973.0  1.10384e+05
   2974.0  1.10532e+05
   2975.0  1.10680e+05
   2976.0  1.10828e+05
   2977.0  1.10976e+05
   2978.0  1.11124e+05
   2979.0  1.11273e+05
   2980.0  1.11421e+05
   2981.0  1.11570e+05
   2982.0  1.11719e+05
   2983.0  1.11868e+05
   2984.0  1.12018e+05
   2985.0  1.12167e+05
   2986.0  1.12317e+05
   2987.0  1.12467e+05
   2988.0  1.12616e+05
   2989.0  1.12767e+05
   2990.0  1.12917e+05
   2991.0  1.13067e+05
   2992.0  1.13218e+05
   2993.0  1.13369e+05
   2994.0  1.13519e+05
   2995.0  1.13670e+05
   2996.0  1.13822e+05
   2997.0  1.13973e+05
   2998.0  1.14125e+05
   2999.0  1.14276e+05
   3000.0  1.14428e+05
   3001.0  1.14580e+05
   3002.0  1.14732e+05
   3003.0  1.14885e+05
   3004.0  1.15037e+05
   3005.0  1.15190e+05
   3006.0  1.15343e+05
   3007.0  1.15496e+05
   3008.0  1.15649e+05
   3009.0  1.15802e+05
   3010.0  1.15955e+05
   3011.0  1.16109e+05
   3012.0  1.16263e+05
   3013.0  1.16417e+05
   3014.0  1.16571e+05
   3015.0  1.16725e+05
   3016.0  1.16880e+05
   3017.0  1.17034e+05
   3018.0  1.17189e+05
   3019.0  1.17344e+05
   3020.0  1.17499e+05
   3021.0  1.17654e+05
   3022.0  1.17810e+05
   3023.0  1.17965e+05
   3024.0  1.18121e+05
   3025.0  1.18277e+05
   3026.0  1.18433e+05
   3027.0  1.18589e+05
   3028.0  1.18746e+05
   3029.0  1.18902e+05
   3030.0  1.19059e+05
   3031.0  1.19216e+05
   3032.0  1.19373e+05
   3033.0  1.19530e+05
   3034.0  1.19687e+05
   3035.0  1.19845e+05
   3036.0  1.20003e+05
   3037.0  1.20161e+05
   3038.0  1.20319e+05
   3039.0  1.20477e+05
   3040.0  1.20635e+05
   3041.0  1.20794e+05
   3042.0  1.20952e+05
   3043.0  1.21111e+05
   3044.0  1.21270e+05
   3045.0  1.21429e+05
   3046.0  1.21589e+05
   3047.0  1.21748e+05
   3048.0  1.21908e+05
   3049.0  1.22068e+05
   3050.0  1.22228e+05
   3051.0  1.22388e+05
   3052.0  1.22549e+05
   3053.0  1.22709e+05
   3054.0  1.22870e+05
   3055.0  1.23031e+05
   3056.0  1.23192e+05
   3057.0  1.23353e+05
   3058.0  1.23514e+05
   3059.0  1.23676e+05
   3060.0  1.23837e+05
   3061.0  1.23999e+05
   3062.0  1.24161e+05
   3063.0  1.24324e+05
   3064.0  1.24486e+05
   3065.0  1.24648e+05
   3066.0  1.24811e+05
   3067.0  1.24974e+05
   3068.0  1.25137e+05
   3069.0  1.25300e+05
   3070.0  1.25464e+05
   3071.0  1.25627e+05
   3072.0  1.25791e+05
   3073.0  1.25955e+05
   3074.0  1.26119e+05
   3075.0  1.26283e+05
   3076.0  1.26448e+05
   3077.0  1.26612e+05
   3078.0  1.26777e+05
   3079.0  1.26942e+05
   3080.0  1.27107e+05
   3081.0  1.27272e+05
   3082.0  1.27438e+05
   3083.0  1.27603e+05
   3084.0  1.27769e+05
   3085.0  1.27935e+05
   3086.0  1.28101e+05
   3087.0  1.28267e+05
   3088.0  1.28434e+05
   3089.0  1.28600e+05
   3090.0  1.28767e+05
   3091.0  1.28934e+05
   3092.0  1.29101e+05
   3093.0  1.29268e+05
   3094.0  1.29436e+05
   3095.0  1.29604e+05
   3096.0  1.29771e+05
   3097.0  1.29939e+05
   3098.0  1.30108e+05
   3099.0  1.30276e+05
   3100.0  1.30444e+05
   3101.0  1.30613e+05
   3102.0  1.30782e+05
   3103.0  1.30951e+05
   3104.0  1.31120e+05
   3105.0  1.31290e+05
   3106.0  1.31459e+05
   3107.0  1.31629e+05
   3108.0  1.31799e+05
   3109.0  1.31969e+05
   3110.0  1.32139e+05
   3111.0  1.32309e+05
   3112.0  1.32480e+05
   3113.0  1.32651e+05
   3114.0  1.32822e+05
   3115.0  1.32993e+05
   3116.0  1.33164e+05
   3117.0  1.33336e+05
   3118.0  1.33507e+05
   3119.0  1.33679e+05
   3120.0  1.33851e+05
   3121.0  1.34023e+05
   3122.0  1.34196e+05
   3123.0  1.34368e+05
   3124.0  1.34541e+05
   3125.0  1.34714e+05
   3126.0  1.34887e+05
   3127.0  1.35060e+05
   3128.0  1.35233e+05
   3129.0  1.35407e+05
   3130.0  1.35581e+05
   3131.0  1.35754e+05
   3132.0  1.35929e+05
   3133.0  1.36103e+05
   3134.0  1.36277e+05
   3135.0  1.36452e+05
   3136.0  1.36627e+05
   3137.0  1.36802e+05
   3138.0  1.36977e+05
   3139.0  1.37152e+05
   3140.0  1.37328e+05
   3141.0  1.37503e+05
   3142.0  1.37679e+05
   3143.0  1.37855e+05
   3144.0  1.38032e+05
   3145.0  1.38208e+05
   3146.0  1.38385e+05
   3147.0  1.38561e+05
   3148.0  1.38738e+05
   3149.0  1.38915e+05
   3150.0  1.39093e+05
   3151.0  1.39270e+05
   3152.0  1.39448e+05
   3153.0  1.39626e+05
   3154.0  1.39804e+05
   3155.0  1.39982e+05
   3156.0  1.40160e+05
   3157.0  1.40339e+05
   3158.0  1.40517e+05
   3159.0  1.40696e+05
   3160.0  1.40875e+05
   3161.0  1.41055e+05
   3162.0  1.41234e+05
   3163.0  1.41414e+05
   3164.0  1.41594e+05
   3165.0  1.41774e+05
   3166.0  1.41954e+05
   3167.0  1.42134e+05
   3168.0  1.42315e+05
   3169.0  1.42495e+05
   3170.0  1.42676e+05
   3171.0  1.42857e+05
   3172.0  1.43039e+05
   3173.0  1.43220e+05
   3174.0  1.43402e+05
   3175.0  1.43583e+05
   3176.0  1.43765e+05
   3177.0  1.43948e+05
   3178.0  1.44130e+05
   3179.0  1.44312e+05
   3180.0  1.44495e+05
   3181.0  1.44678e+05
   3182.0  1.44861e+05
   3183.0  1.45044e+05
   3184.0  1.45228e+05
   3185.0  1.45412e+05
   3186.0  1.45595e+05
   3187.0  1.45779e+05
   3188.0  1.45963e+05
   3189.0  1.46148e+05
   3190.0  1.46332e+05
   3191.0  1.46517e+05
   3192.0  1.46702e+05
   3193.0  1.46887e+05
   3194.0  1.47072e+05
   3195.0  1.47258e+05
   3196.0  1.47444e+05
   3197.0  1.47629e+05
   3198.0  1.47815e+05
   3199.0  1.48002e+05
   3200.0  1.48188e+05
   3201.0  1.48375e+05
   3202.0  1.48561e+05
   3203.0  1.48748e+05
   3204.0  1.48935e+05
   3205.0  1.49123e+05
   3206.0  1.49310e+05
   3207.0  1.49498e+05
   3208.0  1.49686e+05
   3209.0  1.49874e+05
   3210.0  1.50062e+05
   3211.0  1.50250e+05
   3212.0  1.50439e+05
   3213.0  1.50628e+05
   3214.0  1.50817e+05
   3215.0  1.51006e+05
   3216.0  1.51195e+05
   3217.0  1.51385e+05
   3218.0  1.51575e+05
   3219.0  1.51765e+05
   3220.0  1.51955e+05
   3221.0  1.52145e+05
   3222.0  1.52336e+05
   3223.0  1.52526e+05
   3224.0  1.52717e+05
   3225.0  1.52908e+05
   3226.0  1.53099e+05
   3227.0  1.53291e+05
   3228.0  1.53482e+05
   3229.0  1.53674e+05
   3230.0  1.53866e+05
   3231.0  1.54058e+05
   3232.0  1.54251e+05
   3233.0  1.54443e+05
   3234.0  1.54636e+05
   3235.0  1.54829e+05
   3236.0  1.55022e+05
   3237.0  1.55215e+05
   3238.0  1.55409e+05
   3239.0  1.55603e+05
   3240.0  1.55796e+05
   3241.0  1.55991e+05
   3242.0  1.56185e+05
   3243.0  1.56379e+05
   3244.0  1.56574e+05
   3245.0  1.56769e+05
   3246.0  1.56964e+05
   3247.0  1.57159e+05
   3248.0  1.57354e+05
   3249.0  1.57550e+05
   3250.0  1.57746e+05
   3251.0  1.57942e+05
   3252.0  1.58138e+05
   3253.0  1.58334e+05
   3254.0  1.58531e+05
   3255.0  1.58728e+05
   3256.0  1.58925e+05
   3257.0  1.59122e+05
   3258.0  1.59319e+05
   3259.0  1.59516e+05
   3260.0  1.59714e+05
   3261.0  1.59912e+05
   3262.0  1.60110e+05
   3263.0  1.60308e+05
   3264.0  1.60507e+05
   3265.0  1.60706e+05
   3266.0  1.60904e+05
   3267.0  1.61104e+05
   3268.0  1.61303e+05
   3269.0  1.61502e+05
   3270.0  1.61702e+05
   3271.0  1.61902e+05
   3272.0  1.62102e+05
   3273.0  1.62302e+05
   3274.0  1.62502e+05
   3275.0  1.62703e+05
   3276.0  1.62904e+05
   3277.0  1.63105e+05
   3278.0  1.63306e+05
   3279.0  1.63507e+05
   3280.0  1.63709e+05
   3281.0  1.63911e+05
   3282.0  1.64113e+05
   3283.0  1.64315e+05
   3284.0  1.64517e+05
   3285.0  1.64720e+05
   3286.0  1.64922e+05
   3287.0  1.65125e+05
   3288.0  1.65329e+05
   3289.0  1.65532e+05
   3290.0  1.65735e+05
   3291.0  1.65939e+05
   3292.0  1.66143e+05
   3293.0  1.66347e+05
   3294.0  1.66552e+05
   3295.0  1.66756e+05
   3296.0  1.66961e+05
   3297.0  1.67166e+05
   3298.0  1.67371e+05
   3299.0  1.67576e+05
   3300.0  1.67782e+05
   3301.0  1.67987e+05
   3302.0  1.68193e+05
   3303.0  1.68399e+05
   3304.0  1.68606e+05
   3305.0  1.68812e+05
   3306.0  1.69019e+05
   3307.0  1.69226e+05
   3308.0  1.69433e+05
   3309.0  1.69640e+05
   3310.0  1.69847e+05
   3311.0  1.70055e+05
   3312.0  1.70263e+05
   3313.0  1.70471e+05
   3314.0  1.70679e+05
   3315.0  1.70888e+05
   3316.0  1.71097e+05
   3317.0  1.71305e+05
   3318.0  1.71515e+05
   3319.0  1.71724e+05
   3320.0  1.71933e+05
   3321.0  1.72143e+05
   3322.0  1.72353e+05
   3323.0  1.72563e+05
   3324.0  1.72773e+05
   3325.0  1.72984e+05
   3326.0  1.73194e+05
   3327.0  1.73405e+05
   3328.0  1.73616e+05
   3329.0  1.73828e+05
   3330.0  1.74039e+05
   3331.0  1.74251e+05
   3332.0  1.74463e+05
   3333.0  1.74675e+05
   3334.0  1.74887e+05
   3335.0  1.75099e+05
   3336.0  1.75312e+05
   3337.0  1.75525e+05
   3338.0  1.75738e+05
   3339.0  1.75951e+05
   3340.0  1.76165e+05
   3341.0  1.76379e+05
   3342.0  1.76593e+05
   3343.0  1.76807e+05
   3344.0  1.77021e+05
   3345.0  1.77235e+05
   3346.0  1.77450e+05
   3347.0  1.77665e+05
   3348.0  1.77880e+05
   3349.0  1.78096e+05
   3350.0  1.78311e+05
   3351.0  1.78527e+05
   3352.0  1.78743e+05
   3353.0  1.78959e+05
   3354.0  1.79175e+05
   3355.0  1.79392e+05
   3356.0  1.79608e+05
   3357.0  1.79825e+05
   3358.0  1.80043e+05
   3359.0  1.80260e+05
   3360.0  1.80478e+05
   3361.0  1.80695e+05
   3362.0  1.80913e+05
   3363.0  1.81131e+05
   3364.0  1.81350e+05
   3365.0  1.81568e+05
   3366.0  1.81787e+05
   3367.0  1.82006e+05
   3368.0  1.82225e+05
   3369.0  1.82445e+05
   3370.0  1.82665e+05
   3371.0  1.82884e+05
   3372.0  1.83104e+05
   3373.0  1.83325e+05
   3374.0  1.83545e+05
   3375.0  1.83766e+05
   3376.0  1.83987e+05
   3377.0  1.84208e+05
   3378.0  1.84429e+05
   3379.0  1.84650e+05
   3380.0  1.84872e+05
   3381.0  1.85094e+05
   3382.0  1.85316e+05
   3383.0  1.85538e+05
   3384.0  1.85761e+05
   3385.0  1.85984e+05
   3386.0  1.86207e+05
   3387.0  1.86430e+05
   3388.0  1.86653e+05
   3389.0  1.86877e+05
   3390.0  1.87101e+05
   3391.0  1.87325e+05
   3392.0  1.87549e+05
   3393.0  1.87773e+05
   3394.0  1.87998e+05
   3395.0  1.88223e+05
   3396.0  1.88448e+05
   3397.0  1.88673e+05
   3398.0  1.88898e+05
   3399.0  1.89124e+05
   3400.0  1.89350e+05
   3401.0  1.89576e+05
   3402.0  1.89802e+05
   3403.0  1.90029e+05
   3404.0  1.90255e+05
   3405.0  1.90482e+05
   3406.0  1.90709e+05
   3407.0  1.90937e+05
   3408.0  1.91164e+05
   3409.0  1.91392e+05
   3410.0  1.91620e+05
   3411.0  1.91848e+05
   3412.0  1.92077e+05
   3413.0  1.92305e+05
   3414.0  1.92534e+05
   3415.0  1.92763e+05
   3416.0  1.92992e+05
   3417.0  1.93222e+05
   3418.0  1.93451e+05
   3419.0  1.93681e+05
   3420.0  1.93911e+05
   3421.0  1.94142e+05
   3422.0  1.94372e+05
   3423.0  1.94603e+05
   3424.0  1.94834e+05
   3425.0  1.95065e+05
   3426.0  1.95296e+05
   3427.0  1.95528e+05
   3428.0  1.95760e+05
   3429.0  1.95992e+05
   3430.0  1.96224e+05
   3431.0  1.96456e+05
   3432.0  1.96689e+05
   3433.0  1.96922e+05
   3434.0  1.97155e+05
   3435.0  1.97388e+05
   3436.0  1.97622e+05
   3437.0  1.97856e+05
   3438.0  1.98089e+05
   3439.0  1.98324e+05
   3440.0  1.98558e+05
   3441.0  1.98793e+05
   3442.0  1.99027e+05
   3443.0  1.99262e+05
   3444.0  1.99498e+05
   3445.0  1.99733e+05
   3446.0  1.99969e+05
   3447.0  2.00205e+05
   3448.0  2.00441e+05
   3449.0  2.00677e+05
   3450.0  2.00914e+05
   3451.0  2.01150e+05
   3452.0  2.01387e+05
   3453.0  2.01624e+05
   3454.0  2.01862e+05
   3455.0  2.02099e+05
   3456.0  2.02337e+05
   3457.0  2.02575e+05
   3458.0  2.02813e+05
   3459.0  2.03052e+05
   3460.0  2.03291e+05
   3461.0  2.03530e+05
   3462.0  2.03769e+05
   3463.0  2.04008e+05
   3464.0  2.04248e+05
   3465.0  2.04487e+05
   3466.0  2.04727e+05
   3467.0  2.04968e+05
   3468.0  2.05208e+05
   3469.0  2.05449e+05
   3470.0  2.05690e+05
   3471.0  2.05931e+05
   3472.0  2.06172e+05
   3473.0  2.06413e+05
   3474.0  2.06655e+05
   3475.0  2.06897e+05
   3476.0  2.07139e+05
   3477.0  2.07382e+05
   3478.0  2.07624e+05
   3479.0  2.07867e+05
   3480.0  2.08110e+05
   3481.0  2.08354e+05
   3482.0  2.08597e+05
   3483.0  2.08841e+05
   3484.0  2.09085e+05
   3485.0  2.09329e+05
   3486.0  2.09573e+05
   3487.0  2.09818e+05
   3488.0  2.10063e+05
   3489.0  2.10308e+05
   3490.0  2.10553e+05
   3491.0  2.10799e+05
   3492.0  2.11044e+05
   3493.0  2.11290e+05
   3494.0  2.11536e+05
   3495.0  2.11783e+05
   3496.0  2.12029e+05
   3497.0  2.12276e+05
   3498.0  2.12523e+05
   3499.0  2.12770e+05
   3500.0  2.13018e+05
   3501.0  2.13266e+05
   3502.0  2.13514e+05
   3503.0  2.13762e+05
   3504.0  2.14010e+05
   3505.0  2.14259e+05
   3506.0  2.14508e+05
   3507.0  2.14757e+05
   3508.0  2.15006e+05
   3509.0  2.15255e+05
   3510.0  2.15505e+05
   3511.0  2.15755e+05
   3512.0  2.16005e+05
   3513.0  2.16256e+05
   3514.0  2.16506e+05
   3515.0  2.16757e+05
   3516.0  2.17008e+05
   3517.0  2.17259e+05
   3518.0  2.17511e+05
   3519.0  2.17763e+05
   3520.0  2.18015e+05
   3521.0  2.18267e+05
   3522.0  2.18519e+05
   3523.0  2.18772e+05
   3524.0  2.19025e+05
   3525.0  2.19278e+05
   3526.0  2.19531e+05
   3527.0  2.19785e+05
   3528.0  2.20038e+05
   3529.0  2.20292e+05
   3530.0  2.20547e+05
   3531.0  2.20801e+05
   3532.0  2.21056e+05
   3533.0  2.21311e+05
   3534.0  2.21566e+05
   3535.0  2.21821e+05
   3536.0  2.22077e+05
   3537.0  2.22333e+05
   3538.0  2.22589e+05
   3539.0  2.22845e+05
   3540.0  2.23101e+05
   3541.0  2.23358e+05
   3542.0  2.23615e+05
   3543.0  2.23872e+05
   3544.0  2.24130e+05
   3545.0  2.24387e+05
   3546.0  2.24645e+05
   3547.0  2.24903e+05
   3548.0  2.25161e+05
   3549.0  2.25420e+05
   3550.0  2.25679e+05
   3551.0  2.25938e+05
   3552.0  2.26197e+05
   3553.0  2.26456e+05
   3554.0  2.26716e+05
   3555.0  2.26976e+05
   3556.0  2.27236e+05
   3557.0  2.27497e+05
   3558.0  2.27757e+05
   3559.0  2.28018e+05
   3560.0  2.28279e+05
   3561.0  2.28540e+05
   3562.0  2.28802e+05
   3563.0  2.29064e+05
   3564.0  2.29326e+05
   3565.0  2.29588e+05
   3566.0  2.29850e+05
   3567.0  2.30113e+05
   3568.0  2.30376e+05
   3569.0  2.30639e+05
   3570.0  2.30902e+05
   3571.0  2.31166e+05
   3572.0  2.31430e+05
   3573.0  2.31694e+05
   3574.0  2.31958e+05
   3575.0  2.32223e+05
   3576.0  2.32488e+05
   3577.0  2.32753e+05
   3578.0  2.33018e+05
   3579.0  2.33283e+05
   3580.0  2.33549e+05
   3581.0  2.33815e+05
   3582.0  2.34081e+05
   3583.0  2.34347e+05
   3584.0  2.34614e+05
   3585.0  2.34881e+05
   3586.0  2.35148e+05
   3587.0  2.35415e+05
   3588.0  2.35683e+05
   3589.0  2.35951e+05
   3590.0  2.36219e+05
   3591.0  2.36487e+05
   3592.0  2.36755e+05
   3593.0  2.37024e+05
   3594.0  2.37293e+05
   3595.0  2.37562e+05
   3596.0  2.37832e+05
   3597.0  2.38101e+05
   3598.0  2.38371e+05
   3599.0  2.38641e+05
   3600.0  2.38912e+05
   3601.0  2.39182e+05
   3602.0  2.39453e+05
   3603.0  2.39724e+05
   3604.0  2.39996e+05
   3605.0  2.40267e+05
   3606.0  2.40539e+05
   3607.0  2.40811e+05
   3608.0  2.41083e+05
   3609.0  2.41356e+05
   3610.0  2.41628e+05
   3611.0  2.41901e+05
   3612.0  2.42174e+05
   3613.0  2.42448e+05
   3614.0  2.42722e+05
   3615.0  2.42995e+05
   3616.0  2.43270e+05
   3617.0  2.43544e+05
   3618.0  2.43819e+05
   3619.0  2.44093e+05
   3620.0  2.44369e+05
   3621.0  2.44644e+05
   3622.0  2.44919e+05
   3623.0  2.45195e+05
   3624.0  2.45471e+05
   3625.0  2.45748e+05
   3626.0  2.46024e+05
   3627.0  2.46301e+05
   3628.0  2.46578e+05
   3629.0  2.46855e+05
   3630.0  2.47133e+05
   3631.0  2.47410e+05
   3632.0  2.47688e+05
   3633.0  2.47966e+05
   3634.0  2.48245e+05
   3635.0  2.48524e+05
   3636.0  2.48802e+05
   3637.0  2.49082e+05
   3638.0  2.49361e+05
   3639.0  2.49641e+05
   3640.0  2.49920e+05
   3641.0  2.50201e+05
   3642.0  2.50481e+05
   3643.0  2.50762e+05
   3644.0  2.51042e+05
   3645.0  2.51323e+05
   3646.0  2.51605e+05
   3647.0  2.51886e+05
   3648.0  2.52168e+05
   3649.0  2.52450e+05
   3650.0  2.52732e+05
   3651.0  2.53015e+05
   3652.0  2.53298e+05
   3653.0  2.53581e+05
   3654.0  2.53864e+05
   3655.0  2.54147e+05
   3656.0  2.54431e+05
   3657.0  2.54715e+05
   3658.0  2.54999e+05
   3659.0  2.55284e+05
   3660.0  2.55568e+05
   3661.0  2.55853e+05
   3662.0  2.56138e+05
   3663.0  2.56424e+05
   3664.0  2.56710e+05
   3665.0  2.56995e+05
   3666.0  2.57282e+05
   3667.0  2.57568e+05
   3668.0  2.57855e+05
   3669.0  2.58142e+05
   3670.0  2.58429e+05
   3671.0  2.58716e+05
   3672.0  2.59004e+05
   3673.0  2.59291e+05
   3674.0  2.59580e+05
   3675.0  2.59868e+05
   3676.0  2.60157e+05
   3677.0  2.60445e+05
   3678.0  2.60734e+05
   3679.0  2.61024e+05
   3680.0  2.61313e+05
   3681.0  2.61603e+05
   3682.0  2.61893e+05
   3683.0  2.62183e+05
   3684.0  2.62474e+05
   3685.0  2.62765e+05
   3686.0  2.63056e+05
   3687.0  2.63347e+05
   3688.0  2.63639e+05
   3689.0  2.63930e+05
   3690.0  2.64222e+05
   3691.0  2.64515e+05
   3692.0  2.64807e+05
   3693.0  2.65100e+05
   3694.0  2.65393e+05
   3695.0  2.65686e+05
   3696.0  2.65980e+05
   3697.0  2.66273e+05
   3698.0  2.66567e+05
   3699.0  2.66862e+05
   3700.0  2.67156e+05
   3701.0  2.67451e+05
   3702.0  2.67746e+05
   3703.0  2.68041e+05
   3704.0  2.68337e+05
   3705.0  2.68632e+05
   3706.0  2.68928e+05
   3707.0  2.69225e+05
   3708.0  2.69521e+05
   3709.0  2.69818e+05
   3710.0  2.70115e+05
   3711.0  2.70412e+05
   3712.0  2.70709e+05
   3713.0  2.71007e+05
   3714.0  2.71305e+05
   3715.0  2.71603e+05
   3716.0  2.71902e+05
   3717.0  2.72201e+05
   3718.0  2.72499e+05
   3719.0  2.72799e+05
   3720.0  2.73098e+05
   3721.0  2.73398e+05
   3722.0  2.73698e+05
   3723.0  2.73998e+05
   3724.0  2.74298e+05
   3725.0  2.74599e+05
   3726.0  2.74900e+05
   3727.0  2.75201e+05
   3728.0  2.75503e+05
   3729.0  2.75805e+05
   3730.0  2.76107e+05
   3731.0  2.76409e+05
   3732.0  2.76711e+05
   3733.0  2.77014e+05
   3734.0  2.77317e+05
   3735.0  2.77620e+05
   3736.0  2.77924e+05
   3737.0  2.78227e+05
   3738.0  2.78531e+05
   3739.0  2.78836e+05
   3740.0  2.79140e+05
   3741.0  2.79445e+05
   3742.0  2.79750e+05
   3743.0  2.80055e+05
   3744.0  2.80360e+05
   3745.0  2.80666e+05
   3746.0  2.80972e+05
   3747.0  2.81278e+05
   3748.0  2.81585e+05
   3749.0  2.81892e+05
   3750.0  2.82199e+05
   3751.0  2.82506e+05
   3752.0  2.82814e+05
   3753.0  2.83121e+05
   3754.0  2.83429e+05
   3755.0  2.83738e+05
   3756.0  2.84046e+05
   3757.0  2.84355e+05
   3758.0  2.84664e+05
   3759.0  2.84973e+05
   3760.0  2.85283e+05
   3761.0  2.85593e+05
   3762.0  2.85903e+05
   3763.0  2.86213e+05
   3764.0  2.86524e+05
   3765.0  2.86834e+05
   3766.0  2.87146e+05
   3767.0  2.87457e+05
   3768.0  2.87768e+05
   3769.0  2.88080e+05
   3770.0  2.88392e+05
   3771.0  2.88705e+05
   3772.0  2.89017e+05
   3773.0  2.89330e+05
   3774.0  2.89643e+05
   3775.0  2.89957e+05
   3776.0  2.90270e+05
   3777.0  2.90584e+05
   3778.0  2.90899e+05
   3779.0  2.91213e+05
   3780.0  2.91528e+05
   3781.0  2.91843e+05
   3782.0  2.92158e+05
   3783.0  2.92473e+05
   3784.0  2.92789e+05
   3785.0  2.93105e+05
   3786.0  2.93421e+05
   3787.0  2.93738e+05
   3788.0  2.94054e+05
   3789.0  2.94371e+05
   3790.0  2.94689e+05
   3791.0  2.95006e+05
   3792.0  2.95324e+05
   3793.0  2.95642e+05
   3794.0  2.95960e+05
   3795.0  2.96279e+05
   3796.0  2.96598e+05
   3797.0  2.96917e+05
   3798.0  2.97236e+05
   3799.0  2.97555e+05
   3800.0  2.97875e+05
   3801.0  2.98195e+05
   3802.0  2.98516e+05
   3803.0  2.98836e+05
   3804.0  2.99157e+05
   3805.0  2.99478e+05
   3806.0  2.99800e+05
   3807.0  3.00121e+05
   3808.0  3.00443e+05
   3809.0  3.00766e+05
   3810.0  3.01088e+05
   3811.0  3.01411e+05
   3812.0  3.01734e+05
   3813.0  3.02057e+05
   3814.0  3.02380e+05
   3815.0  3.02704e+05
   3816.0  3.03028e+05
   3817.0  3.03352e+05
   3818.0  3.03677e+05
   3819.0  3.04002e+05
   3820.0  3.04327e+05
   3821.0  3.04652e+05
   3822.0  3.04978e+05
   3823.0  3.05304e+05
   3824.0  3.05630e+05
   3825.0  3.05956e+05
   3826.0  3.06283e+05
   3827.0  3.06610e+05
   3828.0  3.06937e+05
   3829.0  3.07264e+05
   3830.0  3.07592e+05
   3831.0  3.07920e+05
   3832.0  3.08248e+05
   3833.0  3.08577e+05
   3834.0  3.08905e+05
   3835.0  3.09234e+05
   3836.0  3.09564e+05
   3837.0  3.09893e+05
   3838.0  3.10223e+05
   3839.0  3.10553e+05
   3840.0  3.10883e+05
   3841.0  3.11214e+05
   3842.0  3.11545e+05
   3843.0  3.11876e+05
   3844.0  3.12207e+05
   3845.0  3.12539e+05
   3846.0  3.12871e+05
   3847.0  3.13203e+05
   3848.0  3.13535e+05
   3849.0  3.13868e+05
   3850.0  3.14201e+05
   3851.0  3.14534e+05
   3852.0  3.14868e+05
   3853.0  3.15202e+05
   3854.0  3.15536e+05
   3855.0  3.15870e+05
   3856.0  3.16204e+05
   3857.0  3.16539e+05
   3858.0  3.16874e+05
   3859.0  3.17210e+05
   3860.0  3.17545e+05
   3861.0  3.17881e+05
   3862.0  3.18217e+05
   3863.0  3.18554e+05
   3864.0  3.18891e+05
   3865.0  3.19228e+05
   3866.0  3.19565e+05
   3867.0  3.19902e+05
   3868.0  3.20240e+05
   3869.0  3.20578e+05
   3870.0  3.20916e+05
   3871.0  3.21255e+05
   3872.0  3.21594e+05
   3873.0  3.21933e+05
   3874.0  3.22272e+05
   3875.0  3.22612e+05
   3876.0  3.22952e+05
   3877.0  3.23292e+05
   3878.0  3.23633e+05
   3879.0  3.23973e+05
   3880.0  3.24314e+05
   3881.0  3.24656e+05
   3882.0  3.24997e+05
   3883.0  3.25339e+05
   3884.0  3.25681e+05
   3885.0  3.26023e+05
   3886.0  3.26366e+05
   3887.0  3.26709e+05
   3888.0  3.27052e+05
   3889.0  3.27395e+05
   3890.0  3.27739e+05
   3891.0  3.28083e+05
   3892.0  3.28427e+05
   3893.0  3.28772e+05
   3894.0  3.29117e+05
   3895.0  3.29462e+05
   3896.0  3.29807e+05
   3897.0  3.30153e+05
   3898.0  3.30498e+05
   3899.0  3.30845e+05
   3900.0  3.31191e+05
   3901.0  3.31538e+05
   3902.0  3.31885e+05
   3903.0  3.32232e+05
   3904.0  3.32579e+05
   3905.0  3.32927e+05
   3906.0  3.33275e+05
   3907.0  3.33623e+05
   3908.0  3.33972e+05
   3909.0  3.34321e+05
   3910.0  3.34670e+05
   3911.0  3.35019e+05
   3912.0  3.35369e+05
   3913.0  3.35719e+05
   3914.0  3.36069e+05
   3915.0  3.36420e+05
   3916.0  3.36770e+05
   3917.0  3.37122e+05
   3918.0  3.37473e+05
   3919.0  3.37824e+05
   3920.0  3.38176e+05
   3921.0  3.38528e+05
   3922.0  3.38881e+05
   3923.0  3.39233e+05
   3924.0  3.39586e+05
   3925.0  3.39940e+05
   3926.0  3.40293e+05
   3927.0  3.40647e+05
   3928.0  3.41001e+05
   3929.0  3.41355e+05
   3930.0  3.41710e+05
   3931.0  3.42065e+05
   3932.0  3.42420e+05
   3933.0  3.42775e+05
   3934.0  3.43131e+05
   3935.0  3.43487e+05
   3936.0  3.43843e+05
   3937.0  3.44200e+05
   3938.0  3.44557e+05
   3939.0  3.44914e+05
   3940.0  3.45271e+05
   3941.0  3.45629e+05
   3942.0  3.45987e+05
   3943.0  3.46345e+05
   3944.0  3.46703e+05
   3945.0  3.47062e+05
   3946.0  3.47421e+05
   3947.0  3.47780e+05
   3948.0  3.48140e+05
   3949.0  3.48500e+05
   3950.0  3.48860e+05
   3951.0  3.49220e+05
   3952.0  3.49581e+05
   3953.0  3.49942e+05
   3954.0  3.50303e+05
   3955.0  3.50665e+05
   3956.0  3.51027e+05
   3957.0  3.51389e+05
   3958.0  3.51751e+05
   3959.0  3.52114e+05
   3960.0  3.52477e+05
   3961.0  3.52840e+05
   3962.0  3.53203e+05
   3963.0  3.53567e+05
   3964.0  3.53931e+05
   3965.0  3.54295e+05
   3966.0  3.54660e+05
   3967.0  3.55025e+05
   3968.0  3.55390e+05
   3969.0  3.55755e+05
   3970.0  3.56121e+05
   3971.0  3.56487e+05
   3972.0  3.56853e+05
   3973.0  3.57220e+05
   3974.0  3.57587e+05
   3975.0  3.57954e+05
   3976.0  3.58321e+05
   3977.0  3.58689e+05
   3978.0  3.59057e+05
   3979.0  3.59425e+05
   3980.0  3.59793e+05
   3981.0  3.60162e+05
   3982.0  3.60531e+05
   3983.0  3.60901e+05
   3984.0  3.61270e+05
   3985.0  3.61640e+05
   3986.0  3.62010e+05
   3987.0  3.62381e+05
   3988.0  3.62752e+05
   3989.0  3.63123e+05
   3990.0  3.63494e+05
   3991.0  3.63866e+05
   3992.0  3.64237e+05
   3993.0  3.64610e+05
   3994.0  3.64982e+05
   3995.0  3.65355e+05
   3996.0  3.65728e+05
   3997.0  3.66101e+05
   3998.0  3.66475e+05
   3999.0  3.66848e+05
   4000.0  3.67223e+05
   4001.0  3.67597e+05
   4002.0  3.67972e+05
   4003.0  3.68347e+05
   4004.0  3.68722e+05
   4005.0  3.69098e+05
   4006.0  3.69473e+05
   4007.0  3.69850e+05
   4008.0  3.70226e+05
   4009.0  3.70603e+05
   4010.0  3.70980e+05
   4011.0  3.71357e+05
   4012.0  3.71735e+05
   4013.0  3.72112e+05
   4014.0  3.72490e+05
   4015.0  3.72869e+05
   4016.0  3.73248e+05
   4017.0  3.73627e+05
   4018.0  3.74006e+05
   4019.0  3.74385e+05
   4020.0  3.74765e+05
   4021.0  3.75145e+05
   4022.0  3.75526e+05
   4023.0  3.75906e+05
   4024.0  3.76287e+05
   4025.0  3.76669e+05
   4026.0  3.77050e+05
   4027.0  3.77432e+05
   4028.0  3.77814e+05
   4029.0  3.78197e+05
   4030.0  3.78579e+05
   4031.0  3.78962e+05
   4032.0  3.79345e+05
   4033.0  3.79729e+05
   4034.0  3.80113e+05
   4035.0  3.80497e+05
   4036.0  3.80881e+05
   4037.0  3.81266e+05
   4038.0  3.81651e+05
   4039.0  3.82036e+05
   4040.0  3.82422e+05
   4041.0  3.82808e+05
   4042.0  3.83194e+05
   4043.0  3.83580e+05
   4044.0  3.83967e+05
   4045.0  3.84354e+05
   4046.0  3.84741e+05
   4047.0  3.85129e+05
   4048.0  3.85517e+05
   4049.0  3.85905e+05
   4050.0  3.86293e+05
   4051.0  3.86682e+05
   4052.0  3.87071e+05
   4053.0  3.87461e+05
   4054.0  3.87850e+05
   4055.0  3.88240e+05
   4056.0  3.88630e+05
   4057.0  3.89021e+05
   4058.0  3.89411e+05
   4059.0  3.89802e+05
   4060.0  3.90194e+05
   4061.0  3.90585e+05
   4062.0  3.90977e+05
   4063.0  3.91370e+05
   4064.0  3.91762e+05
   4065.0  3.92155e+05
   4066.0  3.92548e+05
   4067.0  3.92941e+05
   4068.0  3.93335e+05
   4069.0  3.93729e+05
   4070.0  3.94123e+05
   4071.0  3.94518e+05
   4072.0  3.94913e+05
   4073.0  3.95308e+05
   4074.0  3.95703e+05
   4075.0  3.96099e+05
   4076.0  3.96495e+05
   4077.0  3.96891e+05
   4078.0  3.97288e+05
   4079.0  3.97685e+05
   4080.0  3.98082e+05
   4081.0  3.98479e+05
   4082.0  3.98877e+05
   4083.0  3.99275e+05
   4084.0  3.99673e+05
   4085.0  4.00072e+05
   4086.0  4.00471e+05
   4087.0  4.00870e+05
   4088.0  4.01270e+05
   4089.0  4.01669e+05
   4090.0  4.02069e+05
   4091.0  4.02470e+05
   4092.0  4.02871e+05
   4093.0  4.03271e+05
   4094.0  4.03673e+05
   4095.0  4.04074e+05
   4096.0  4.04476e+05
   4097.0  4.04878e+05
   4098.0  4.05281e+05
   4099.0  4.05683e+05
   4100.0  4.06087e+05
   4101.0  4.06490e+05
   4102.0  4.06893e+05
   4103.0  4.07297e+05
   4104.0  4.07702e+05
   4105.0  4.08106e+05
   4106.0  4.08511e+05
   4107.0  4.08916e+05
   4108.0  4.09321e+05
   4109.0  4.09727e+05
   4110.0  4.10133e+05
   4111.0  4.10539e+05
   4112.0  4.10946e+05
   4113.0  4.11353e+05
   4114.0  4.11760e+05
   4115.0  4.12167e+05
   4116.0  4.12575e+05
   4117.0  4.12983e+05
   4118.0  4.13392e+05
   4119.0  4.13800e+05
   4120.0  4.14209e+05
   4121.0  4.14618e+05
   4122.0  4.15028e+05
   4123.0  4.15438e+05
   4124.0  4.15848e+05
   4125.0  4.16258e+05
   4126.0  4.16669e+05
   4127.0  4.17080e+05
   4128.0  4.17491e+05
   4129.0  4.17903e+05
   4130.0  4.18315e+05
   4131.0  4.18727e+05
   4132.0  4.19140e+05
   4133.0  4.19552e+05
   4134.0  4.19966e+05
   4135.0  4.20379e+05
   4136.0  4.20793e+05
   4137.0  4.21207e+05
   4138.0  4.21621e+05
   4139.0  4.22036e+05
   4140.0  4.22450e+05
   4141.0  4.22866e+05
   4142.0  4.23281e+05
   4143.0  4.23697e+05
   4144.0  4.24113e+05
   4145.0  4.24529e+05
   4146.0  4.24946e+05
   4147.0  4.25363e+05
   4148.0  4.25780e+05
   4149.0  4.26198e+05
   4150.0  4.26616e+05
   4151.0  4.27034e+05
   4152.0  4.27453e+05
   4153.0  4.27871e+05
   4154.0  4.28290e+05
   4155.0  4.28710e+05
   4156.0  4.29130e+05
   4157.0  4.29550e+05
   4158.0  4.29970e+05
   4159.0  4.30390e+05
   4160.0  4.30811e+05
   4161.0  4.31232e+05
   4162.0  4.31654e+05
   4163.0  4.32076e+05
   4164.0  4.32498e+05
   4165.0  4.32920e+05
   4166.0  4.33343e+05
   4167.0  4.33766e+05
   4168.0  4.34189e+05
   4169.0  4.34613e+05
   4170.0  4.35037e+05
   4171.0  4.35461e+05
   4172.0  4.35886e+05
   4173.0  4.36310e+05
   4174.0  4.36735e+05
   4175.0  4.37161e+05
   4176.0  4.37587e+05
   4177.0  4.38013e+05
   4178.0  4.38439e+05
   4179.0  4.38866e+05
   4180.0  4.39293e+05
   4181.0  4.39720e+05
   4182.0  4.40147e+05
   4183.0  4.40575e+05
   4184.0  4.41003e+05
   4185.0  4.41432e+05
   4186.0  4.41861e+05
   4187.0  4.42290e+05
   4188.0  4.42719e+05
   4189.0  4.43149e+05
   4190.0  4.43579e+05
   4191.0  4.44009e+05
   4192.0  4.44440e+05
   4193.0  4.44870e+05
   4194.0  4.45302e+05
   4195.0  4.45733e+05
   4196.0  4.46165e+05
   4197.0  4.46597e+05
   4198.0  4.47029e+05
   4199.0  4.47462e+05
   4200.0  4.47895e+05
   4201.0  4.48328e+05
   4202.0  4.48762e+05
   4203.0  4.49196e+05
   4204.0  4.49630e+05
   4205.0  4.50065e+05
   4206.0  4.50500e+05
   4207.0  4.50935e+05
   4208.0  4.51370e+05
   4209.0  4.51806e+05
   4210.0  4.52242e+05
   4211.0  4.52679e+05
   4212.0  4.53115e+05
   4213.0  4.53552e+05
   4214.0  4.53990e+05
   4215.0  4.54427e+05
   4216.0  4.54865e+05
   4217.0  4.55303e+05
   4218.0  4.55742e+05
   4219.0  4.56181e+05
   4220.0  4.56620e+05
   4221.0  4.57059e+05
   4222.0  4.57499e+05
   4223.0  4.57939e+05
   4224.0  4.58380e+05
   4225.0  4.58820e+05
   4226.0  4.59261e+05
   4227.0  4.59703e+05
   4228.0  4.60144e+05
   4229.0  4.60586e+05
   4230.0  4.61028e+05
   4231.0  4.61471e+05
   4232.0  4.61914e+05
   4233.0  4.62357e+05
   4234.0  4.62800e+05
   4235.0  4.63244e+05
   4236.0  4.63688e+05
   4237.0  4.64132e+05
   4238.0  4.64577e+05
   4239.0  4.65022e+05
   4240.0  4.65468e+05
   4241.0  4.65913e+05
   4242.0  4.66359e+05
   4243.0  4.66805e+05
   4244.0  4.67252e+05
   4245.0  4.67699e+05
   4246.0  4.68146e+05
   4247.0  4.68593e+05
   4248.0  4.69041e+05
   4249.0  4.69489e+05
   4250.0  4.69938e+05
   4251.0  4.70386e+05
   4252.0  4.70836e+05
   4253.0  4.71285e+05
   4254.0  4.71735e+05
   4255.0  4.72184e+05
   4256.0  4.72635e+05
   4257.0  4.73085e+05
   4258.0  4.73536e+05
   4259.0  4.73987e+05
   4260.0  4.74439e+05
   4261.0  4.74891e+05
   4262.0  4.75343e+05
   4263.0  4.75795e+05
   4264.0  4.76248e+05
   4265.0  4.76701e+05
   4266.0  4.77155e+05
   4267.0  4.77608e+05
   4268.0  4.78062e+05
   4269.0  4.78517e+05
   4270.0  4.78971e+05
   4271.0  4.79426e+05
   4272.0  4.79882e+05
   4273.0  4.80337e+05
   4274.0  4.80793e+05
   4275.0  4.81249e+05
   4276.0  4.81706e+05
   4277.0  4.82163e+05
   4278.0  4.82620e+05
   4279.0  4.83077e+05
   4280.0  4.83535e+05
   4281.0  4.83993e+05
   4282.0  4.84452e+05
   4283.0  4.84910e+05
   4284.0  4.85369e+05
   4285.0  4.85829e+05
   4286.0  4.86288e+05
   4287.0  4.86748e+05
   4288.0  4.87209e+05
   4289.0  4.87669e+05
   4290.0  4.88130e+05
   4291.0  4.88591e+05
   4292.0  4.89053e+05
   4293.0  4.89515e+05
   4294.0  4.89977e+05
   4295.0  4.90440e+05
   4296.0  4.90902e+05
   4297.0  4.91366e+05
   4298.0  4.91829e+05
   4299.0  4.92293e+05
   4300.0  4.92757e+05
   4301.0  4.93221e+05
   4302.0  4.93686e+05
   4303.0  4.94151e+05
   4304.0  4.94616e+05
   4305.0  4.95082e+05
   4306.0  4.95548e+05
   4307.0  4.96014e+05
   4308.0  4.96481e+05
   4309.0  4.96948e+05
   4310.0  4.97415e+05
   4311.0  4.97882e+05
   4312.0  4.98350e+05
   4313.0  4.98818e+05
   4314.0  4.99287e+05
   4315.0  4.99756e+05
   4316.0  5.00225e+05
   4317.0  5.00694e+05
   4318.0  5.01164e+05
   4319.0  5.01634e+05
   4320.0  5.02105e+05
   4321.0  5.02575e+05
   4322.0  5.03046e+05
   4323.0  5.03518e+05
   4324.0  5.03989e+05
   4325.0  5.04461e+05
   4326.0  5.04934e+05
   4327.0  5.05406e+05
   4328.0  5.05879e+05
   4329.0  5.06353e+05
   4330.0  5.06826e+05
   4331.0  5.07300e+05
   4332.0  5.07774e+05
   4333.0  5.08249e+05
   4334.0  5.08724e+05
   4335.0  5.09199e+05
   4336.0  5.09674e+05
   4337.0  5.10150e+05
   4338.0  5.10626e+05
   4339.0  5.11103e+05
   4340.0  5.11580e+05
   4341.0  5.12057e+05
   4342.0  5.12534e+05
   4343.0  5.13012e+05
   4344.0  5.13490e+05
   4345.0  5.13968e+05
   4346.0  5.14447e+05
   4347.0  5.14926e+05
   4348.0  5.15405e+05
   4349.0  5.15885e+05
   4350.0  5.16365e+05
   4351.0  5.16845e+05
   4352.0  5.17326e+05
   4353.0  5.17807e+05
   4354.0  5.18288e+05
   4355.0  5.18770e+05
   4356.0  5.19252e+05
   4357.0  5.19734e+05
   4358.0  5.20216e+05
   4359.0  5.20699e+05
   4360.0  5.21182e+05
   4361.0  5.21666e+05
   4362.0  5.22150e+05
   4363.0  5.22634e+05
   4364.0  5.23118e+05
   4365.0  5.23603e+05
   4366.0  5.24088e+05
   4367.0  5.24574e+05
   4368.0  5.25060e+05
   4369.0  5.25546e+05
   4370.0  5.26032e+05
   4371.0  5.26519e+05
   4372.0  5.27006e+05
   4373.0  5.27493e+05
   4374.0  5.27981e+05
   4375.0  5.28469e+05
   4376.0  5.28957e+05
   4377.0  5.29446e+05
   4378.0  5.29935e+05
   4379.0  5.30424e+05
   4380.0  5.30914e+05
   4381.0  5.31404e+05
   4382.0  5.31894e+05
   4383.0  5.32385e+05
   4384.0  5.32876e+05
   4385.0  5.33367e+05
   4386.0  5.33859e+05
   4387.0  5.34351e+05
   4388.0  5.34843e+05
   4389.0  5.35335e+05
   4390.0  5.35828e+05
   4391.0  5.36321e+05
   4392.0  5.36815e+05
   4393.0  5.37309e+05
   4394.0  5.37803e+05
   4395.0  5.38298e+05
   4396.0  5.38792e+05
   4397.0  5.39288e+05
   4398.0  5.39783e+05
   4399.0  5.40279e+05
   4400.0  5.40775e+05
   4401.0  5.41271e+05
   4402.0  5.41768e+05
   4403.0  5.42265e+05
   4404.0  5.42763e+05
   4405.0  5.43261e+05
   4406.0  5.43759e+05
   4407.0  5.44257e+05
   4408.0  5.44756e+05
   4409.0  5.45255e+05
   4410.0  5.45754e+05
   4411.0  5.46254e+05
   4412.0  5.46754e+05
   4413.0  5.47254e+05
   4414.0  5.47755e+05
   4415.0  5.48256e+05
   4416.0  5.48757e+05
   4417.0  5.49259e+05
   4418.0  5.49761e+05
   4419.0  5.50264e+05
   4420.0  5.50766e+05
   4421.0  5.51269e+05
   4422.0  5.51772e+05
   4423.0  5.52276e+05
   4424.0  5.52780e+05
   4425.0  5.53284e+05
   4426.0  5.53789e+05
   4427.0  5.54294e+05
   4428.0  5.54799e+05
   4429.0  5.55305e+05
   4430.0  5.55811e+05
   4431.0  5.56317e+05
   4432.0  5.56824e+05
   4433.0  5.57331e+05
   4434.0  5.57838e+05
   4435.0  5.58345e+05
   4436.0  5.58853e+05
   4437.0  5.59362e+05
   4438.0  5.59870e+05
   4439.0  5.60379e+05
   4440.0  5.60888e+05
   4441.0  5.61398e+05
   4442.0  5.61908e+05
   4443.0  5.62418e+05
   4444.0  5.62929e+05
   4445.0  5.63439e+05
   4446.0  5.63951e+05
   4447.0  5.64462e+05
   4448.0  5.64974e+05
   4449.0  5.65486e+05
   4450.0  5.65999e+05
   4451.0  5.66512e+05
   4452.0  5.67025e+05
   4453.0  5.67538e+05
   4454.0  5.68052e+05
   4455.0  5.68566e+05
   4456.0  5.69081e+05
   4457.0  5.69596e+05
   4458.0  5.70111e+05
   4459.0  5.70626e+05
   4460.0  5.71142e+05
   4461.0  5.71658e+05
   4462.0  5.72175e+05
   4463.0  5.72692e+05
   4464.0  5.73209e+05
   4465.0  5.73726e+05
   4466.0  5.74244e+05
   4467.0  5.74762e+05
   4468.0  5.75281e+05
   4469.0  5.75800e+05
   4470.0  5.76319e+05
   4471.0  5.76838e+05
   4472.0  5.77358e+05
   4473.0  5.77878e+05
   4474.0  5.78399e+05
   4475.0  5.78920e+05
   4476.0  5.79441e+05
   4477.0  5.79962e+05
   4478.0  5.80484e+05
   4479.0  5.81006e+05
   4480.0  5.81529e+05
   4481.0  5.82051e+05
   4482.0  5.82575e+05
   4483.0  5.83098e+05
   4484.0  5.83622e+05
   4485.0  5.84146e+05
   4486.0  5.84671e+05
   4487.0  5.85195e+05
   4488.0  5.85720e+05
   4489.0  5.86246e+05
   4490.0  5.86772e+05
   4491.0  5.87298e+05
   4492.0  5.87824e+05
   4493.0  5.88351e+05
   4494.0  5.88878e+05
   4495.0  5.89406e+05
   4496.0  5.89934e+05
   4497.0  5.90462e+05
   4498.0  5.90990e+05
   4499.0  5.91519e+05
   4500.0  5.92048e+05
   4501.0  5.92578e+05
   4502.0  5.93108e+05
   4503.0  5.93638e+05
   4504.0  5.94168e+05
   4505.0  5.94699e+05
   4506.0  5.95230e+05
   4507.0  5.95762e+05
   4508.0  5.96294e+05
   4509.0  5.96826e+05
   4510.0  5.97358e+05
   4511.0  5.97891e+05
   4512.0  5.98424e+05
   4513.0  5.98958e+05
   4514.0  5.99492e+05
   4515.0  6.00026e+05
   4516.0  6.00560e+05
   4517.0  6.01095e+05
   4518.0  6.01630e+05
   4519.0  6.02166e+05
   4520.0  6.02702e+05
   4521.0  6.03238e+05
   4522.0  6.03775e+05
   4523.0  6.04311e+05
   4524.0  6.04849e+05
   4525.0  6.05386e+05
   4526.0  6.05924e+05
   4527.0  6.06462e+05
   4528.0  6.07001e+05
   4529.0  6.07540e+05
   4530.0  6.08079e+05
   4531.0  6.08619e+05
   4532.0  6.09159e+05
   4533.0  6.09699e+05
   4534.0  6.10239e+05
   4535.0  6.10780e+05
   4536.0  6.11322e+05
   4537.0  6.11863e+05
   4538.0  6.12405e+05
   4539.0  6.12947e+05
   4540.0  6.13490e+05
   4541.0  6.14033e+05
   4542.0  6.14576e+05
   4543.0  6.15120e+05
   4544.0  6.15664e+05
   4545.0  6.16208e+05
   4546.0  6.16753e+05
   4547.0  6.17298e+05
   4548.0  6.17843e+05
   4549.0  6.18389e+05
   4550.0  6.18935e+05
   4551.0  6.19481e+05
   4552.0  6.20028e+05
   4553.0  6.20575e+05
   4554.0  6.21122e+05
   4555.0  6.21670e+05
   4556.0  6.22218e+05
   4557.0  6.22766e+05
   4558.0  6.23315e+05
   4559.0  6.23864e+05
   4560.0  6.24414e+05
   4561.0  6.24963e+05
   4562.0  6.25513e+05
   4563.0  6.26064e+05
   4564.0  6.26615e+05
   4565.0  6.27166e+05
   4566.0  6.27717e+05
   4567.0  6.28269e+05
   4568.0  6.28821e+05
   4569.0  6.29374e+05
   4570.0  6.29926e+05
   4571.0  6.30480e+05
   4572.0  6.31033e+05
   4573.0  6.31587e+05
   4574.0  6.32141e+05
   4575.0  6.32696e+05
   4576.0  6.33250e+05
   4577.0  6.33806e+05
   4578.0  6.34361e+05
   4579.0  6.34917e+05
   4580.0  6.35473e+05
   4581.0  6.36030e+05
   4582.0  6.36587e+05
   4583.0  6.37144e+05
   4584.0  6.37702e+05
   4585.0  6.38259e+05
   4586.0  6.38818e+05
   4587.0  6.39376e+05
   4588.0  6.39935e+05
   4589.0  6.40495e+05
   4590.0  6.41054e+05
   4591.0  6.41614e+05
   4592.0  6.42175e+05
   4593.0  6.42735e+05
   4594.0  6.43296e+05
   4595.0  6.43858e+05
   4596.0  6.44419e+05
   4597.0  6.44981e+05
   4598.0  6.45544e+05
   4599.0  6.46107e+05
   4600.0  6.46670e+05
   4601.0  6.47233e+05
   4602.0  6.47797e+05
   4603.0  6.48361e+05
   4604.0  6.48925e+05
   4605.0  6.49490e+05
   4606.0  6.50055e+05
   4607.0  6.50621e+05
   4608.0  6.51187e+05
   4609.0  6.51753e+05
   4610.0  6.52319e+05
   4611.0  6.52886e+05
   4612.0  6.53453e+05
   4613.0  6.54021e+05
   4614.0  6.54589e+05
   4615.0  6.55157e+05
   4616.0  6.55726e+05
   4617.0  6.56295e+05
   4618.0  6.56864e+05
   4619.0  6.57433e+05
   4620.0  6.58003e+05
   4621.0  6.58574e+05
   4622.0  6.59144e+05
   4623.0  6.59715e+05
   4624.0  6.60287e+05
   4625.0  6.60858e+05
   4626.0  6.61431e+05
   4627.0  6.62003e+05
   4628.0  6.62576e+05
   4629.0  6.63149e+05
   4630.0  6.63722e+05
   4631.0  6.64296e+05
   4632.0  6.64870e+05
   4633.0  6.65444e+05
   4634.0  6.66019e+05
   4635.0  6.66594e+05
   4636.0  6.67170e+05
   4637.0  6.67746e+05
   4638.0  6.68322e+05
   4639.0  6.68899e+05
   4640.0  6.69475e+05
   4641.0  6.70053e+05
   4642.0  6.70630e+05
   4643.0  6.71208e+05
   4644.0  6.71786e+05
   4645.0  6.72365e+05
   4646.0  6.72944e+05
   4647.0  6.73523e+05
   4648.0  6.74103e+05
   4649.0  6.74683e+05
   4650.0  6.75263e+05
   4651.0  6.75844e+05
   4652.0  6.76425e+05
   4653.0  6.77007e+05
   4654.0  6.77588e+05
   4655.0  6.78170e+05
   4656.0  6.78753e+05
   4657.0  6.79336e+05
   4658.0  6.79919e+05
   4659.0  6.80502e+05
   4660.0  6.81086e+05
   4661.0  6.81670e+05
   4662.0  6.82255e+05
   4663.0  6.82840e+05
   4664.0  6.83425e+05
   4665.0  6.84011e+05
   4666.0  6.84596e+05
   4667.0  6.85183e+05
   4668.0  6.85769e+05
   4669.0  6.86356e+05
   4670.0  6.86944e+05
   4671.0  6.87531e+05
   4672.0  6.88119e+05
   4673.0  6.88708e+05
   4674.0  6.89297e+05
   4675.0  6.89886e+05
   4676.0  6.90475e+05
   4677.0  6.91065e+05
   4678.0  6.91655e+05
   4679.0  6.92245e+05
   4680.0  6.92836e+05
   4681.0  6.93427e+05
   4682.0  6.94019e+05
   4683.0  6.94611e+05
   4684.0  6.95203e+05
   4685.0  6.95796e+05
   4686.0  6.96389e+05
   4687.0  6.96982e+05
   4688.0  6.97575e+05
   4689.0  6.98169e+05
   4690.0  6.98764e+05
   4691.0  6.99358e+05
   4692.0  6.99953e+05
   4693.0  7.00549e+05
   4694.0  7.01145e+05
   4695.0  7.01741e+05
   4696.0  7.02337e+05
   4697.0  7.02934e+05
   4698.0  7.03531e+05
   4699.0  7.04129e+05
   4700.0  7.04726e+05
   4701.0  7.05325e+05
   4702.0  7.05923e+05
   4703.0  7.06522e+05
   4704.0  7.07121e+05
   4705.0  7.07721e+05
   4706.0  7.08321e+05
   4707.0  7.08921e+05
   4708.0  7.09522e+05
   4709.0  7.10123e+05
   4710.0  7.10724e+05
   4711.0  7.11326e+05
   4712.0  7.11928e+05
   4713.0  7.12530e+05
   4714.0  7.13133e+05
   4715.0  7.13736e+05
   4716.0  7.14340e+05
   4717.0  7.14944e+05
   4718.0  7.15548e+05
   4719.0  7.16152e+05
   4720.0  7.16757e+05
   4721.0  7.17363e+05
   4722.0  7.17968e+05
   4723.0  7.18574e+05
   4724.0  7.19180e+05
   4725.0  7.19787e+05
   4726.0  7.20394e+05
   4727.0  7.21001e+05
   4728.0  7.21609e+05
   4729.0  7.22217e+05
   4730.0  7.22826e+05
   4731.0  7.23434e+05
   4732.0  7.24044e+05
   4733.0  7.24653e+05
   4734.0  7.25263e+05
   4735.0  7.25873e+05
   4736.0  7.26484e+05
   4737.0  7.27095e+05
   4738.0  7.27706e+05
   4739.0  7.28317e+05
   4740.0  7.28929e+05
   4741.0  7.29542e+05
   4742.0  7.30154e+05
   4743.0  7.30768e+05
   4744.0  7.31381e+05
   4745.0  7.31995e+05
   4746.0  7.32609e+05
   4747.0  7.33223e+05
   4748.0  7.33838e+05
   4749.0  7.34453e+05
   4750.0  7.35069e+05
   4751.0  7.35685e+05
   4752.0  7.36301e+05
   4753.0  7.36917e+05
   4754.0  7.37534e+05
   4755.0  7.38152e+05
   4756.0  7.38769e+05
   4757.0  7.39387e+05
   4758.0  7.40006e+05
   4759.0  7.40624e+05
   4760.0  7.41244e+05
   4761.0  7.41863e+05
   4762.0  7.42483e+05
   4763.0  7.43103e+05
   4764.0  7.43723e+05
   4765.0  7.44344e+05
   4766.0  7.44966e+05
   4767.0  7.45587e+05
   4768.0  7.46209e+05
   4769.0  7.46831e+05
   4770.0  7.47454e+05
   4771.0  7.48077e+05
   4772.0  7.48700e+05
   4773.0  7.49324e+05
   4774.0  7.49948e+05
   4775.0  7.50573e+05
   4776.0  7.51197e+05
   4777.0  7.51823e+05
   4778.0  7.52448e+05
   4779.0  7.53074e+05
   4780.0  7.53700e+05
   4781.0  7.54327e+05
   4782.0  7.54954e+05
   4783.0  7.55581e+05
   4784.0  7.56209e+05
   4785.0  7.56837e+05
   4786.0  7.57465e+05
   4787.0  7.58094e+05
   4788.0  7.58723e+05
   4789.0  7.59352e+05
   4790.0  7.59982e+05
   4791.0  7.60612e+05
   4792.0  7.61243e+05
   4793.0  7.61874e+05
   4794.0  7.62505e+05
   4795.0  7.63137e+05
   4796.0  7.63769e+05
   4797.0  7.64401e+05
   4798.0  7.65034e+05
   4799.0  7.65667e+05
   4800.0  7.66300e+05
   4801.0  7.66934e+05
   4802.0  7.67568e+05
   4803.0  7.68202e+05
   4804.0  7.68837e+05
   4805.0  7.69472e+05
   4806.0  7.70108e+05
   4807.0  7.70744e+05
   4808.0  7.71380e+05
   4809.0  7.72017e+05
   4810.0  7.72654e+05
   4811.0  7.73291e+05
   4812.0  7.73929e+05
   4813.0  7.74567e+05
   4814.0  7.75205e+05
   4815.0  7.75844e+05
   4816.0  7.76483e+05
   4817.0  7.77123e+05
   4818.0  7.77763e+05
   4819.0  7.78403e+05
   4820.0  7.79043e+05
   4821.0  7.79684e+05
   4822.0  7.80326e+05
   4823.0  7.80967e+05
   4824.0  7.81609e+05
   4825.0  7.82252e+05
   4826.0  7.82895e+05
   4827.0  7.83538e+05
   4828.0  7.84181e+05
   4829.0  7.84825e+05
   4830.0  7.85469e+05
   4831.0  7.86114e+05
   4832.0  7.86759e+05
   4833.0  7.87404e+05
   4834.0  7.88050e+05
   4835.0  7.88696e+05
   4836.0  7.89342e+05
   4837.0  7.89989e+05
   4838.0  7.90636e+05
   4839.0  7.91283e+05
   4840.0  7.91931e+05
   4841.0  7.92579e+05
   4842.0  7.93228e+05
   4843.0  7.93877e+05
   4844.0  7.94526e+05
   4845.0  7.95176e+05
   4846.0  7.95826e+05
   4847.0  7.96476e+05
   4848.0  7.97127e+05
   4849.0  7.97778e+05
   4850.0  7.98429e+05
   4851.0  7.99081e+05
   4852.0  7.99733e+05
   4853.0  8.00386e+05
   4854.0  8.01039e+05
   4855.0  8.01692e+05
   4856.0  8.02346e+05
   4857.0  8.03000e+05
   4858.0  8.03654e+05
   4859.0  8.04309e+05
   4860.0  8.04964e+05
   4861.0  8.05619e+05
   4862.0  8.06275e+05
   4863.0  8.06931e+05
   4864.0  8.07588e+05
   4865.0  8.08245e+05
   4866.0  8.08902e+05
   4867.0  8.09559e+05
   4868.0  8.10217e+05
   4869.0  8.10876e+05
   4870.0  8.11534e+05
   4871.0  8.12194e+05
   4872.0  8.12853e+05
   4873.0  8.13513e+05
   4874.0  8.14173e+05
   4875.0  8.14833e+05
   4876.0  8.15494e+05
   4877.0  8.16156e+05
   4878.0  8.16817e+05
   4879.0  8.17479e+05
   4880.0  8.18142e+05
   4881.0  8.18804e+05
   4882.0  8.19467e+05
   4883.0  8.20131e+05
   4884.0  8.20795e+05
   4885.0  8.21459e+05
   4886.0  8.22123e+05
   4887.0  8.22788e+05
   4888.0  8.23454e+05
   4889.0  8.24119e+05
   4890.0  8.24785e+05
   4891.0  8.25452e+05
   4892.0  8.26118e+05
   4893.0  8.26786e+05
   4894.0  8.27453e+05
   4895.0  8.28121e+05
   4896.0  8.28789e+05
   4897.0  8.29458e+05
   4898.0  8.30127e+05
   4899.0  8.30796e+05
   4900.0  8.31465e+05
   4901.0  8.32136e+05
   4902.0  8.32806e+05
   4903.0  8.33477e+05
   4904.0  8.34148e+05
   4905.0  8.34819e+05
   4906.0  8.35491e+05
   4907.0  8.36163e+05
   4908.0  8.36836e+05
   4909.0  8.37509e+05
   4910.0  8.38182e+05
   4911.0  8.38856e+05
   4912.0  8.39530e+05
   4913.0  8.40205e+05
   4914.0  8.40879e+05
   4915.0  8.41554e+05
   4916.0  8.42230e+05
   4917.0  8.42906e+05
   4918.0  8.43582e+05
   4919.0  8.44259e+05
   4920.0  8.44936e+05
   4921.0  8.45613e+05
   4922.0  8.46291e+05
   4923.0  8.46969e+05
   4924.0  8.47648e+05
   4925.0  8.48326e+05
   4926.0  8.49006e+05
   4927.0  8.49685e+05
   4928.0  8.50365e+05
   4929.0  8.51045e+05
   4930.0  8.51726e+05
   4931.0  8.52407e+05
   4932.0  8.53089e+05
   4933.0  8.53770e+05
   4934.0  8.54452e+05
   4935.0  8.55135e+05
   4936.0  8.55818e+05
   4937.0  8.56501e+05
   4938.0  8.57185e+05
   4939.0  8.57869e+05
   4940.0  8.58553e+05
   4941.0  8.59238e+05
   4942.0  8.59923e+05
   4943.0  8.60608e+05
   4944.0  8.61294e+05
   4945.0  8.61980e+05
   4946.0  8.62667e+05
   4947.0  8.63354e+05
   4948.0  8.64041e+05
   4949.0  8.64729e+05
   4950.0  8.65417e+05
   4951.0  8.66105e+05
   4952.0  8.66794e+05
   4953.0  8.67483e+05
   4954.0  8.68173e+05
   4955.0  8.68863e+05
   4956.0  8.69553e+05
   4957.0  8.70244e+05
   4958.0  8.70935e+05
   4959.0  8.71626e+05
   4960.0  8.72318e+05
   4961.0  8.73010e+05
   4962.0  8.73703e+05
   4963.0  8.74395e+05
   4964.0  8.75089e+05
   4965.0  8.75782e+05
   4966.0  8.76476e+05
   4967.0  8.77171e+05
   4968.0  8.77865e+05
   4969.0  8.78560e+05
   4970.0  8.79256e+05
   4971.0  8.79952e+05
   4972.0  8.80648e+05
   4973.0  8.81344e+05
   4974.0  8.82041e+05
   4975.0  8.82739e+05
   4976.0  8.83436e+05
   4977.0  8.84134e+05
   4978.0  8.84833e+05
   4979.0  8.85532e+05
   4980.0  8.86231e+05
   4981.0  8.86930e+05
   4982.0  8.87630e+05
   4983.0  8.88330e+05
   4984.0  8.89031e+05
   4985.0  8.89732e+05
   4986.0  8.90433e+05
   4987.0  8.91135e+05
   4988.0  8.91837e+05
   4989.0  8.92540e+05
   4990.0  8.93243e+05
   4991.0  8.93946e+05
   4992.0  8.94650e+05
   4993.0  8.95354e+05
   4994.0  8.96058e+05
   4995.0  8.96763e+05
   4996.0  8.97468e+05
   4997.0  8.98173e+05
   4998.0  8.98879e+05
   4999.0  8.99585e+05
   5000.0  9.00292e+05
