# ExoMol H2S partition-function data
  temp(K)         112
      1.0  1.00000e+00
      2.0  1.00050e+00
      3.0  1.01530e+00
      4.0  1.08580e+00
      5.0  1.24580e+00
      6.0  1.50220e+00
      7.0  1.84430e+00
      8.0  2.25650e+00
      9.0  2.72370e+00
     10.0  3.23400e+00
     11.0  3.77840e+00
     12.0  4.35040e+00
     13.0  4.94560e+00
     14.0  5.56060e+00
     15.0  6.19320e+00
     16.0  6.84170e+00
     17.0  7.50520e+00
     18.0  8.18270e+00
     19.0  8.87360e+00
     20.0  9.57760e+00
     21.0  1.02944e+01
     22.0  1.10237e+01
     23.0  1.17653e+01
     24.0  1.25193e+01
     25.0  1.32854e+01
     26.0  1.40636e+01
     27.0  1.48538e+01
     28.0  1.56561e+01
     29.0  1.64703e+01
     30.0  1.72964e+01
     31.0  1.81344e+01
     32.0  1.89841e+01
     33.0  1.98456e+01
     34.0  2.07187e+01
     35.0  2.16034e+01
     36.0  2.24996e+01
     37.0  2.34073e+01
     38.0  2.43263e+01
     39.0  2.52566e+01
     40.0  2.61981e+01
     41.0  2.71506e+01
     42.0  2.81142e+01
     43.0  2.90887e+01
     44.0  3.00740e+01
     45.0  3.10700e+01
     46.0  3.20767e+01
     47.0  3.30940e+01
     48.0  3.41217e+01
     49.0  3.51598e+01
     50.0  3.62082e+01
     51.0  3.72667e+01
     52.0  3.83354e+01
     53.0  3.94141e+01
     54.0  4.05027e+01
     55.0  4.16012e+01
     56.0  4.27095e+01
     57.0  4.38275e+01
     58.0  4.49551e+01
     59.0  4.60922e+01
     60.0  4.72388e+01
     61.0  4.83948e+01
     62.0  4.95601e+01
     63.0  5.07346e+01
     64.0  5.19184e+01
     65.0  5.31112e+01
     66.0  5.43131e+01
     67.0  5.55240e+01
     68.0  5.67437e+01
     69.0  5.79724e+01
     70.0  5.92098e+01
     71.0  6.04559e+01
     72.0  6.17107e+01
     73.0  6.29741e+01
     74.0  6.42461e+01
     75.0  6.55266e+01
     76.0  6.68155e+01
     77.0  6.81128e+01
     78.0  6.94184e+01
     79.0  7.07323e+01
     80.0  7.20545e+01
     81.0  7.33848e+01
     82.0  7.47233e+01
     83.0  7.60699e+01
     84.0  7.74244e+01
     85.0  7.87870e+01
     86.0  8.01576e+01
     87.0  8.15360e+01
     88.0  8.29223e+01
     89.0  8.43164e+01
     90.0  8.57183e+01
     91.0  8.71279e+01
     92.0  8.85452e+01
     93.0  8.99702e+01
     94.0  9.14027e+01
     95.0  9.28428e+01
     96.0  9.42905e+01
     97.0  9.57456e+01
     98.0  9.72082e+01
     99.0  9.86783e+01
    100.0  1.00156e+02
    101.0  1.01640e+02
    102.0  1.03132e+02
    103.0  1.04632e+02
    104.0  1.06138e+02
    105.0  1.07652e+02
    106.0  1.09173e+02
    107.0  1.10701e+02
    108.0  1.12236e+02
    109.0  1.13779e+02
    110.0  1.15328e+02
    111.0  1.16884e+02
    112.0  1.18448e+02
    113.0  1.20018e+02
    114.0  1.21595e+02
    115.0  1.23179e+02
    116.0  1.24770e+02
    117.0  1.26368e+02
    118.0  1.27973e+02
    119.0  1.29584e+02
    120.0  1.31202e+02
    121.0  1.32827e+02
    122.0  1.34459e+02
    123.0  1.36097e+02
    124.0  1.37742e+02
    125.0  1.39393e+02
    126.0  1.41052e+02
    127.0  1.42716e+02
    128.0  1.44387e+02
    129.0  1.46065e+02
    130.0  1.47750e+02
    131.0  1.49440e+02
    132.0  1.51137e+02
    133.0  1.52841e+02
    134.0  1.54551e+02
    135.0  1.56268e+02
    136.0  1.57990e+02
    137.0  1.59719e+02
    138.0  1.61455e+02
    139.0  1.63196e+02
    140.0  1.64945e+02
    141.0  1.66699e+02
    142.0  1.68459e+02
    143.0  1.70226e+02
    144.0  1.71999e+02
    145.0  1.73778e+02
    146.0  1.75563e+02
    147.0  1.77354e+02
    148.0  1.79151e+02
    149.0  1.80955e+02
    150.0  1.82765e+02
    151.0  1.84580e+02
    152.0  1.86402e+02
    153.0  1.88230e+02
    154.0  1.90063e+02
    155.0  1.91903e+02
    156.0  1.93749e+02
    157.0  1.95600e+02
    158.0  1.97458e+02
    159.0  1.99321e+02
    160.0  2.01190e+02
    161.0  2.03065e+02
    162.0  2.04946e+02
    163.0  2.06833e+02
    164.0  2.08726e+02
    165.0  2.10625e+02
    166.0  2.12529e+02
    167.0  2.14439e+02
    168.0  2.16355e+02
    169.0  2.18276e+02
    170.0  2.20204e+02
    171.0  2.22137e+02
    172.0  2.24076e+02
    173.0  2.26020e+02
    174.0  2.27970e+02
    175.0  2.29926e+02
    176.0  2.31888e+02
    177.0  2.33855e+02
    178.0  2.35827e+02
    179.0  2.37806e+02
    180.0  2.39790e+02
    181.0  2.41780e+02
    182.0  2.43775e+02
    183.0  2.45775e+02
    184.0  2.47782e+02
    185.0  2.49793e+02
    186.0  2.51811e+02
    187.0  2.53834e+02
    188.0  2.55862e+02
    189.0  2.57896e+02
    190.0  2.59935e+02
    191.0  2.61980e+02
    192.0  2.64030e+02
    193.0  2.66086e+02
    194.0  2.68147e+02
    195.0  2.70214e+02
    196.0  2.72286e+02
    197.0  2.74363e+02
    198.0  2.76446e+02
    199.0  2.78534e+02
    200.0  2.80628e+02
    201.0  2.82727e+02
    202.0  2.84831e+02
    203.0  2.86941e+02
    204.0  2.89056e+02
    205.0  2.91176e+02
    206.0  2.93302e+02
    207.0  2.95433e+02
    208.0  2.97569e+02
    209.0  2.99711e+02
    210.0  3.01858e+02
    211.0  3.04010e+02
    212.0  3.06168e+02
    213.0  3.08330e+02
    214.0  3.10499e+02
    215.0  3.12672e+02
    216.0  3.14851e+02
    217.0  3.17034e+02
    218.0  3.19223e+02
    219.0  3.21418e+02
    220.0  3.23617e+02
    221.0  3.25822e+02
    222.0  3.28032e+02
    223.0  3.30247e+02
    224.0  3.32468e+02
    225.0  3.34693e+02
    226.0  3.36924e+02
    227.0  3.39160e+02
    228.0  3.41401e+02
    229.0  3.43647e+02
    230.0  3.45899e+02
    231.0  3.48156e+02
    232.0  3.50418e+02
    233.0  3.52685e+02
    234.0  3.54957e+02
    235.0  3.57234e+02
    236.0  3.59517e+02
    237.0  3.61804e+02
    238.0  3.64097e+02
    239.0  3.66395e+02
    240.0  3.68698e+02
    241.0  3.71006e+02
    242.0  3.73319e+02
    243.0  3.75637e+02
    244.0  3.77961e+02
    245.0  3.80290e+02
    246.0  3.82623e+02
    247.0  3.84962e+02
    248.0  3.87306e+02
    249.0  3.89655e+02
    250.0  3.92009e+02
    251.0  3.94369e+02
    252.0  3.96733e+02
    253.0  3.99102e+02
    254.0  4.01477e+02
    255.0  4.03856e+02
    256.0  4.06241e+02
    257.0  4.08631e+02
    258.0  4.11026e+02
    259.0  4.13426e+02
    260.0  4.15831e+02
    261.0  4.18241e+02
    262.0  4.20656e+02
    263.0  4.23076e+02
    264.0  4.25502e+02
    265.0  4.27932e+02
    266.0  4.30368e+02
    267.0  4.32808e+02
    268.0  4.35254e+02
    269.0  4.37705e+02
    270.0  4.40160e+02
    271.0  4.42621e+02
    272.0  4.45087e+02
    273.0  4.47558e+02
    274.0  4.50034e+02
    275.0  4.52515e+02
    276.0  4.55002e+02
    277.0  4.57493e+02
    278.0  4.59989e+02
    279.0  4.62491e+02
    280.0  4.64997e+02
    281.0  4.67509e+02
    282.0  4.70026e+02
    283.0  4.72547e+02
    284.0  4.75074e+02
    285.0  4.77606e+02
    286.0  4.80143e+02
    287.0  4.82685e+02
    288.0  4.85232e+02
    289.0  4.87784e+02
    290.0  4.90342e+02
    291.0  4.92904e+02
    292.0  4.95471e+02
    293.0  4.98044e+02
    294.0  5.00622e+02
    295.0  5.03204e+02
    296.0  5.05792e+02
    297.0  5.08385e+02
    298.0  5.10983e+02
    299.0  5.13586e+02
    300.0  5.16194e+02
    301.0  5.18808e+02
    302.0  5.21426e+02
    303.0  5.24049e+02
    304.0  5.26678e+02
    305.0  5.29312e+02
    306.0  5.31951e+02
    307.0  5.34595e+02
    308.0  5.37244e+02
    309.0  5.39898e+02
    310.0  5.42557e+02
    311.0  5.45221e+02
    312.0  5.47891e+02
    313.0  5.50566e+02
    314.0  5.53245e+02
    315.0  5.55930e+02
    316.0  5.58620e+02
    317.0  5.61316e+02
    318.0  5.64016e+02
    319.0  5.66721e+02
    320.0  5.69432e+02
    321.0  5.72148e+02
    322.0  5.74869e+02
    323.0  5.77595e+02
    324.0  5.80326e+02
    325.0  5.83063e+02
    326.0  5.85804e+02
    327.0  5.88551e+02
    328.0  5.91303e+02
    329.0  5.94060e+02
    330.0  5.96823e+02
    331.0  5.99590e+02
    332.0  6.02363e+02
    333.0  6.05141e+02
    334.0  6.07924e+02
    335.0  6.10712e+02
    336.0  6.13506e+02
    337.0  6.16304e+02
    338.0  6.19108e+02
    339.0  6.21918e+02
    340.0  6.24732e+02
    341.0  6.27552e+02
    342.0  6.30376e+02
    343.0  6.33207e+02
    344.0  6.36042e+02
    345.0  6.38883e+02
    346.0  6.41728e+02
    347.0  6.44580e+02
    348.0  6.47436e+02
    349.0  6.50298e+02
    350.0  6.53164e+02
    351.0  6.56037e+02
    352.0  6.58914e+02
    353.0  6.61797e+02
    354.0  6.64685e+02
    355.0  6.67578e+02
    356.0  6.70477e+02
    357.0  6.73381e+02
    358.0  6.76290e+02
    359.0  6.79204e+02
    360.0  6.82124e+02
    361.0  6.85049e+02
    362.0  6.87980e+02
    363.0  6.90916e+02
    364.0  6.93857e+02
    365.0  6.96803e+02
    366.0  6.99755e+02
    367.0  7.02712e+02
    368.0  7.05675e+02
    369.0  7.08643e+02
    370.0  7.11616e+02
    371.0  7.14595e+02
    372.0  7.17579e+02
    373.0  7.20569e+02
    374.0  7.23563e+02
    375.0  7.26564e+02
    376.0  7.29569e+02
    377.0  7.32581e+02
    378.0  7.35597e+02
    379.0  7.38619e+02
    380.0  7.41646e+02
    381.0  7.44679e+02
    382.0  7.47717e+02
    383.0  7.50761e+02
    384.0  7.53810e+02
    385.0  7.56865e+02
    386.0  7.59924e+02
    387.0  7.62990e+02
    388.0  7.66061e+02
    389.0  7.69137e+02
    390.0  7.72219e+02
    391.0  7.75307e+02
    392.0  7.78400e+02
    393.0  7.81498e+02
    394.0  7.84602e+02
    395.0  7.87712e+02
    396.0  7.90826e+02
    397.0  7.93947e+02
    398.0  7.97073e+02
    399.0  8.00205e+02
    400.0  8.03342e+02
    401.0  8.06484e+02
    402.0  8.09633e+02
    403.0  8.12786e+02
    404.0  8.15946e+02
    405.0  8.19111e+02
    406.0  8.22281e+02
    407.0  8.25457e+02
    408.0  8.28639e+02
    409.0  8.31827e+02
    410.0  8.35020e+02
    411.0  8.38218e+02
    412.0  8.41422e+02
    413.0  8.44632e+02
    414.0  8.47848e+02
    415.0  8.51069e+02
    416.0  8.54296e+02
    417.0  8.57528e+02
    418.0  8.60766e+02
    419.0  8.64010e+02
    420.0  8.67260e+02
    421.0  8.70515e+02
    422.0  8.73776e+02
    423.0  8.77042e+02
    424.0  8.80314e+02
    425.0  8.83592e+02
    426.0  8.86876e+02
    427.0  8.90166e+02
    428.0  8.93461e+02
    429.0  8.96762e+02
    430.0  9.00069e+02
    431.0  9.03381e+02
    432.0  9.06699e+02
    433.0  9.10023e+02
    434.0  9.13353e+02
    435.0  9.16689e+02
    436.0  9.20030e+02
    437.0  9.23377e+02
    438.0  9.26730e+02
    439.0  9.30089e+02
    440.0  9.33454e+02
    441.0  9.36824e+02
    442.0  9.40200e+02
    443.0  9.43582e+02
    444.0  9.46971e+02
    445.0  9.50364e+02
    446.0  9.53764e+02
    447.0  9.57170e+02
    448.0  9.60581e+02
    449.0  9.63999e+02
    450.0  9.67422e+02
    451.0  9.70851e+02
    452.0  9.74286e+02
    453.0  9.77727e+02
    454.0  9.81174e+02
    455.0  9.84627e+02
    456.0  9.88086e+02
    457.0  9.91551e+02
    458.0  9.95022e+02
    459.0  9.98499e+02
    460.0  1.00198e+03
    461.0  1.00547e+03
    462.0  1.00896e+03
    463.0  1.01247e+03
    464.0  1.01597e+03
    465.0  1.01949e+03
    466.0  1.02300e+03
    467.0  1.02653e+03
    468.0  1.03006e+03
    469.0  1.03360e+03
    470.0  1.03714e+03
    471.0  1.04069e+03
    472.0  1.04424e+03
    473.0  1.04781e+03
    474.0  1.05137e+03
    475.0  1.05495e+03
    476.0  1.05853e+03
    477.0  1.06211e+03
    478.0  1.06570e+03
    479.0  1.06930e+03
    480.0  1.07290e+03
    481.0  1.07652e+03
    482.0  1.08013e+03
    483.0  1.08375e+03
    484.0  1.08738e+03
    485.0  1.09102e+03
    486.0  1.09466e+03
    487.0  1.09831e+03
    488.0  1.10196e+03
    489.0  1.10562e+03
    490.0  1.10929e+03
    491.0  1.11296e+03
    492.0  1.11664e+03
    493.0  1.12032e+03
    494.0  1.12401e+03
    495.0  1.12771e+03
    496.0  1.13141e+03
    497.0  1.13512e+03
    498.0  1.13884e+03
    499.0  1.14256e+03
    500.0  1.14629e+03
    501.0  1.15002e+03
    502.0  1.15377e+03
    503.0  1.15751e+03
    504.0  1.16127e+03
    505.0  1.16503e+03
    506.0  1.16879e+03
    507.0  1.17257e+03
    508.0  1.17635e+03
    509.0  1.18013e+03
    510.0  1.18393e+03
    511.0  1.18772e+03
    512.0  1.19153e+03
    513.0  1.19534e+03
    514.0  1.19916e+03
    515.0  1.20298e+03
    516.0  1.20681e+03
    517.0  1.21065e+03
    518.0  1.21450e+03
    519.0  1.21835e+03
    520.0  1.22220e+03
    521.0  1.22607e+03
    522.0  1.22994e+03
    523.0  1.23381e+03
    524.0  1.23770e+03
    525.0  1.24159e+03
    526.0  1.24548e+03
    527.0  1.24938e+03
    528.0  1.25329e+03
    529.0  1.25721e+03
    530.0  1.26113e+03
    531.0  1.26506e+03
    532.0  1.26900e+03
    533.0  1.27294e+03
    534.0  1.27689e+03
    535.0  1.28084e+03
    536.0  1.28480e+03
    537.0  1.28877e+03
    538.0  1.29275e+03
    539.0  1.29673e+03
    540.0  1.30072e+03
    541.0  1.30472e+03
    542.0  1.30872e+03
    543.0  1.31273e+03
    544.0  1.31674e+03
    545.0  1.32076e+03
    546.0  1.32479e+03
    547.0  1.32883e+03
    548.0  1.33287e+03
    549.0  1.33692e+03
    550.0  1.34098e+03
    551.0  1.34504e+03
    552.0  1.34911e+03
    553.0  1.35319e+03
    554.0  1.35727e+03
    555.0  1.36136e+03
    556.0  1.36546e+03
    557.0  1.36956e+03
    558.0  1.37367e+03
    559.0  1.37779e+03
    560.0  1.38191e+03
    561.0  1.38604e+03
    562.0  1.39018e+03
    563.0  1.39433e+03
    564.0  1.39848e+03
    565.0  1.40264e+03
    566.0  1.40681e+03
    567.0  1.41098e+03
    568.0  1.41516e+03
    569.0  1.41935e+03
    570.0  1.42354e+03
    571.0  1.42774e+03
    572.0  1.43195e+03
    573.0  1.43616e+03
    574.0  1.44038e+03
    575.0  1.44461e+03
    576.0  1.44885e+03
    577.0  1.45309e+03
    578.0  1.45734e+03
    579.0  1.46160e+03
    580.0  1.46586e+03
    581.0  1.47013e+03
    582.0  1.47441e+03
    583.0  1.47870e+03
    584.0  1.48299e+03
    585.0  1.48729e+03
    586.0  1.49160e+03
    587.0  1.49591e+03
    588.0  1.50023e+03
    589.0  1.50456e+03
    590.0  1.50890e+03
    591.0  1.51324e+03
    592.0  1.51759e+03
    593.0  1.52195e+03
    594.0  1.52631e+03
    595.0  1.53068e+03
    596.0  1.53506e+03
    597.0  1.53945e+03
    598.0  1.54384e+03
    599.0  1.54824e+03
    600.0  1.55265e+03
    601.0  1.55707e+03
    602.0  1.56149e+03
    603.0  1.56592e+03
    604.0  1.57036e+03
    605.0  1.57480e+03
    606.0  1.57925e+03
    607.0  1.58371e+03
    608.0  1.58818e+03
    609.0  1.59265e+03
    610.0  1.59714e+03
    611.0  1.60162e+03
    612.0  1.60612e+03
    613.0  1.61062e+03
    614.0  1.61514e+03
    615.0  1.61966e+03
    616.0  1.62418e+03
    617.0  1.62872e+03
    618.0  1.63326e+03
    619.0  1.63781e+03
    620.0  1.64236e+03
    621.0  1.64693e+03
    622.0  1.65150e+03
    623.0  1.65608e+03
    624.0  1.66066e+03
    625.0  1.66526e+03
    626.0  1.66986e+03
    627.0  1.67447e+03
    628.0  1.67908e+03
    629.0  1.68371e+03
    630.0  1.68834e+03
    631.0  1.69298e+03
    632.0  1.69763e+03
    633.0  1.70228e+03
    634.0  1.70694e+03
    635.0  1.71161e+03
    636.0  1.71629e+03
    637.0  1.72098e+03
    638.0  1.72567e+03
    639.0  1.73037e+03
    640.0  1.73508e+03
    641.0  1.73980e+03
    642.0  1.74452e+03
    643.0  1.74925e+03
    644.0  1.75399e+03
    645.0  1.75874e+03
    646.0  1.76350e+03
    647.0  1.76826e+03
    648.0  1.77303e+03
    649.0  1.77781e+03
    650.0  1.78260e+03
    651.0  1.78739e+03
    652.0  1.79220e+03
    653.0  1.79701e+03
    654.0  1.80182e+03
    655.0  1.80665e+03
    656.0  1.81149e+03
    657.0  1.81633e+03
    658.0  1.82118e+03
    659.0  1.82604e+03
    660.0  1.83090e+03
    661.0  1.83578e+03
    662.0  1.84066e+03
    663.0  1.84555e+03
    664.0  1.85045e+03
    665.0  1.85535e+03
    666.0  1.86027e+03
    667.0  1.86519e+03
    668.0  1.87012e+03
    669.0  1.87506e+03
    670.0  1.88000e+03
    671.0  1.88496e+03
    672.0  1.88992e+03
    673.0  1.89489e+03
    674.0  1.89987e+03
    675.0  1.90486e+03
    676.0  1.90985e+03
    677.0  1.91486e+03
    678.0  1.91987e+03
    679.0  1.92489e+03
    680.0  1.92992e+03
    681.0  1.93495e+03
    682.0  1.94000e+03
    683.0  1.94505e+03
    684.0  1.95011e+03
    685.0  1.95518e+03
    686.0  1.96026e+03
    687.0  1.96534e+03
    688.0  1.97044e+03
    689.0  1.97554e+03
    690.0  1.98065e+03
    691.0  1.98577e+03
    692.0  1.99090e+03
    693.0  1.99603e+03
    694.0  2.00118e+03
    695.0  2.00633e+03
    696.0  2.01149e+03
    697.0  2.01666e+03
    698.0  2.02184e+03
    699.0  2.02702e+03
    700.0  2.03222e+03
    701.0  2.03742e+03
    702.0  2.04263e+03
    703.0  2.04785e+03
    704.0  2.05308e+03
    705.0  2.05832e+03
    706.0  2.06357e+03
    707.0  2.06882e+03
    708.0  2.07408e+03
    709.0  2.07935e+03
    710.0  2.08463e+03
    711.0  2.08992e+03
    712.0  2.09522e+03
    713.0  2.10053e+03
    714.0  2.10584e+03
    715.0  2.11116e+03
    716.0  2.11649e+03
    717.0  2.12184e+03
    718.0  2.12718e+03
    719.0  2.13254e+03
    720.0  2.13791e+03
    721.0  2.14328e+03
    722.0  2.14867e+03
    723.0  2.15406e+03
    724.0  2.15946e+03
    725.0  2.16487e+03
    726.0  2.17029e+03
    727.0  2.17572e+03
    728.0  2.18116e+03
    729.0  2.18660e+03
    730.0  2.19206e+03
    731.0  2.19752e+03
    732.0  2.20299e+03
    733.0  2.20847e+03
    734.0  2.21396e+03
    735.0  2.21946e+03
    736.0  2.22497e+03
    737.0  2.23048e+03
    738.0  2.23601e+03
    739.0  2.24154e+03
    740.0  2.24709e+03
    741.0  2.25264e+03
    742.0  2.25820e+03
    743.0  2.26377e+03
    744.0  2.26935e+03
    745.0  2.27494e+03
    746.0  2.28054e+03
    747.0  2.28614e+03
    748.0  2.29176e+03
    749.0  2.29738e+03
    750.0  2.30302e+03
    751.0  2.30866e+03
    752.0  2.31431e+03
    753.0  2.31997e+03
    754.0  2.32564e+03
    755.0  2.33132e+03
    756.0  2.33701e+03
    757.0  2.34271e+03
    758.0  2.34841e+03
    759.0  2.35413e+03
    760.0  2.35986e+03
    761.0  2.36559e+03
    762.0  2.37133e+03
    763.0  2.37709e+03
    764.0  2.38285e+03
    765.0  2.38862e+03
    766.0  2.39440e+03
    767.0  2.40019e+03
    768.0  2.40599e+03
    769.0  2.41180e+03
    770.0  2.41762e+03
    771.0  2.42345e+03
    772.0  2.42928e+03
    773.0  2.43513e+03
    774.0  2.44099e+03
    775.0  2.44685e+03
    776.0  2.45273e+03
    777.0  2.45861e+03
    778.0  2.46450e+03
    779.0  2.47041e+03
    780.0  2.47632e+03
    781.0  2.48224e+03
    782.0  2.48817e+03
    783.0  2.49412e+03
    784.0  2.50007e+03
    785.0  2.50603e+03
    786.0  2.51200e+03
    787.0  2.51798e+03
    788.0  2.52397e+03
    789.0  2.52997e+03
    790.0  2.53597e+03
    791.0  2.54199e+03
    792.0  2.54802e+03
    793.0  2.55406e+03
    794.0  2.56010e+03
    795.0  2.56616e+03
    796.0  2.57223e+03
    797.0  2.57830e+03
    798.0  2.58439e+03
    799.0  2.59049e+03
    800.0  2.59659e+03
    801.0  2.60271e+03
    802.0  2.60883e+03
    803.0  2.61497e+03
    804.0  2.62111e+03
    805.0  2.62727e+03
    806.0  2.63343e+03
    807.0  2.63960e+03
    808.0  2.64579e+03
    809.0  2.65198e+03
    810.0  2.65819e+03
    811.0  2.66440e+03
    812.0  2.67062e+03
    813.0  2.67686e+03
    814.0  2.68310e+03
    815.0  2.68936e+03
    816.0  2.69562e+03
    817.0  2.70189e+03
    818.0  2.70818e+03
    819.0  2.71447e+03
    820.0  2.72078e+03
    821.0  2.72709e+03
    822.0  2.73341e+03
    823.0  2.73975e+03
    824.0  2.74609e+03
    825.0  2.75245e+03
    826.0  2.75881e+03
    827.0  2.76519e+03
    828.0  2.77157e+03
    829.0  2.77797e+03
    830.0  2.78437e+03
    831.0  2.79079e+03
    832.0  2.79721e+03
    833.0  2.80365e+03
    834.0  2.81009e+03
    835.0  2.81655e+03
    836.0  2.82302e+03
    837.0  2.82949e+03
    838.0  2.83598e+03
    839.0  2.84248e+03
    840.0  2.84899e+03
    841.0  2.85550e+03
    842.0  2.86203e+03
    843.0  2.86857e+03
    844.0  2.87512e+03
    845.0  2.88168e+03
    846.0  2.88825e+03
    847.0  2.89483e+03
    848.0  2.90142e+03
    849.0  2.90803e+03
    850.0  2.91464e+03
    851.0  2.92126e+03
    852.0  2.92789e+03
    853.0  2.93454e+03
    854.0  2.94119e+03
    855.0  2.94786e+03
    856.0  2.95453e+03
    857.0  2.96122e+03
    858.0  2.96791e+03
    859.0  2.97462e+03
    860.0  2.98134e+03
    861.0  2.98807e+03
    862.0  2.99481e+03
    863.0  3.00156e+03
    864.0  3.00832e+03
    865.0  3.01509e+03
    866.0  3.02187e+03
    867.0  3.02866e+03
    868.0  3.03547e+03
    869.0  3.04228e+03
    870.0  3.04911e+03
    871.0  3.05594e+03
    872.0  3.06279e+03
    873.0  3.06964e+03
    874.0  3.07651e+03
    875.0  3.08339e+03
    876.0  3.09028e+03
    877.0  3.09718e+03
    878.0  3.10409e+03
    879.0  3.11102e+03
    880.0  3.11795e+03
    881.0  3.12489e+03
    882.0  3.13185e+03
    883.0  3.13882e+03
    884.0  3.14579e+03
    885.0  3.15278e+03
    886.0  3.15978e+03
    887.0  3.16679e+03
    888.0  3.17381e+03
    889.0  3.18085e+03
    890.0  3.18789e+03
    891.0  3.19494e+03
    892.0  3.20201e+03
    893.0  3.20909e+03
    894.0  3.21618e+03
    895.0  3.22327e+03
    896.0  3.23038e+03
    897.0  3.23751e+03
    898.0  3.24464e+03
    899.0  3.25178e+03
    900.0  3.25894e+03
    901.0  3.26610e+03
    902.0  3.27328e+03
    903.0  3.28047e+03
    904.0  3.28767e+03
    905.0  3.29488e+03
    906.0  3.30211e+03
    907.0  3.30934e+03
    908.0  3.31659e+03
    909.0  3.32384e+03
    910.0  3.33111e+03
    911.0  3.33839e+03
    912.0  3.34568e+03
    913.0  3.35298e+03
    914.0  3.36030e+03
    915.0  3.36762e+03
    916.0  3.37496e+03
    917.0  3.38231e+03
    918.0  3.38967e+03
    919.0  3.39704e+03
    920.0  3.40442e+03
    921.0  3.41182e+03
    922.0  3.41922e+03
    923.0  3.42664e+03
    924.0  3.43407e+03
    925.0  3.44151e+03
    926.0  3.44897e+03
    927.0  3.45643e+03
    928.0  3.46391e+03
    929.0  3.47139e+03
    930.0  3.47889e+03
    931.0  3.48640e+03
    932.0  3.49393e+03
    933.0  3.50146e+03
    934.0  3.50901e+03
    935.0  3.51656e+03
    936.0  3.52413e+03
    937.0  3.53172e+03
    938.0  3.53931e+03
    939.0  3.54691e+03
    940.0  3.55453e+03
    941.0  3.56216e+03
    942.0  3.56980e+03
    943.0  3.57745e+03
    944.0  3.58512e+03
    945.0  3.59279e+03
    946.0  3.60048e+03
    947.0  3.60818e+03
    948.0  3.61590e+03
    949.0  3.62362e+03
    950.0  3.63136e+03
    951.0  3.63910e+03
    952.0  3.64687e+03
    953.0  3.65464e+03
    954.0  3.66242e+03
    955.0  3.67022e+03
    956.0  3.67803e+03
    957.0  3.68585e+03
    958.0  3.69368e+03
    959.0  3.70153e+03
    960.0  3.70938e+03
    961.0  3.71725e+03
    962.0  3.72514e+03
    963.0  3.73303e+03
    964.0  3.74094e+03
    965.0  3.74885e+03
    966.0  3.75678e+03
    967.0  3.76473e+03
    968.0  3.77268e+03
    969.0  3.78065e+03
    970.0  3.78863e+03
    971.0  3.79662e+03
    972.0  3.80463e+03
    973.0  3.81264e+03
    974.0  3.82067e+03
    975.0  3.82872e+03
    976.0  3.83677e+03
    977.0  3.84484e+03
    978.0  3.85292e+03
    979.0  3.86101e+03
    980.0  3.86911e+03
    981.0  3.87723e+03
    982.0  3.88536e+03
    983.0  3.89350e+03
    984.0  3.90165e+03
    985.0  3.90982e+03
    986.0  3.91800e+03
    987.0  3.92619e+03
    988.0  3.93439e+03
    989.0  3.94261e+03
    990.0  3.95084e+03
    991.0  3.95908e+03
    992.0  3.96734e+03
    993.0  3.97561e+03
    994.0  3.98389e+03
    995.0  3.99218e+03
    996.0  4.00049e+03
    997.0  4.00881e+03
    998.0  4.01714e+03
    999.0  4.02548e+03
   1000.0  4.03384e+03
   1001.0  4.04221e+03
   1002.0  4.05059e+03
   1003.0  4.05899e+03
   1004.0  4.06740e+03
   1005.0  4.07582e+03
   1006.0  4.08425e+03
   1007.0  4.09270e+03
   1008.0  4.10116e+03
   1009.0  4.10964e+03
   1010.0  4.11812e+03
   1011.0  4.12662e+03
   1012.0  4.13513e+03
   1013.0  4.14366e+03
   1014.0  4.15220e+03
   1015.0  4.16075e+03
   1016.0  4.16931e+03
   1017.0  4.17789e+03
   1018.0  4.18648e+03
   1019.0  4.19509e+03
   1020.0  4.20370e+03
   1021.0  4.21233e+03
   1022.0  4.22098e+03
   1023.0  4.22963e+03
   1024.0  4.23830e+03
   1025.0  4.24699e+03
   1026.0  4.25568e+03
   1027.0  4.26439e+03
   1028.0  4.27312e+03
   1029.0  4.28185e+03
   1030.0  4.29060e+03
   1031.0  4.29937e+03
   1032.0  4.30814e+03
   1033.0  4.31693e+03
   1034.0  4.32574e+03
   1035.0  4.33455e+03
   1036.0  4.34338e+03
   1037.0  4.35223e+03
   1038.0  4.36108e+03
   1039.0  4.36995e+03
   1040.0  4.37884e+03
   1041.0  4.38773e+03
   1042.0  4.39664e+03
   1043.0  4.40557e+03
   1044.0  4.41451e+03
   1045.0  4.42346e+03
   1046.0  4.43242e+03
   1047.0  4.44140e+03
   1048.0  4.45039e+03
   1049.0  4.45940e+03
   1050.0  4.46842e+03
   1051.0  4.47745e+03
   1052.0  4.48650e+03
   1053.0  4.49556e+03
   1054.0  4.50463e+03
   1055.0  4.51372e+03
   1056.0  4.52282e+03
   1057.0  4.53194e+03
   1058.0  4.54107e+03
   1059.0  4.55021e+03
   1060.0  4.55937e+03
   1061.0  4.56854e+03
   1062.0  4.57773e+03
   1063.0  4.58693e+03
   1064.0  4.59614e+03
   1065.0  4.60536e+03
   1066.0  4.61461e+03
   1067.0  4.62386e+03
   1068.0  4.63313e+03
   1069.0  4.64241e+03
   1070.0  4.65171e+03
   1071.0  4.66102e+03
   1072.0  4.67034e+03
   1073.0  4.67968e+03
   1074.0  4.68903e+03
   1075.0  4.69840e+03
   1076.0  4.70778e+03
   1077.0  4.71718e+03
   1078.0  4.72659e+03
   1079.0  4.73601e+03
   1080.0  4.74545e+03
   1081.0  4.75490e+03
   1082.0  4.76436e+03
   1083.0  4.77384e+03
   1084.0  4.78334e+03
   1085.0  4.79285e+03
   1086.0  4.80237e+03
   1087.0  4.81191e+03
   1088.0  4.82146e+03
   1089.0  4.83103e+03
   1090.0  4.84061e+03
   1091.0  4.85020e+03
   1092.0  4.85981e+03
   1093.0  4.86943e+03
   1094.0  4.87907e+03
   1095.0  4.88872e+03
   1096.0  4.89839e+03
   1097.0  4.90807e+03
   1098.0  4.91777e+03
   1099.0  4.92748e+03
   1100.0  4.93720e+03
   1101.0  4.94694e+03
   1102.0  4.95670e+03
   1103.0  4.96647e+03
   1104.0  4.97625e+03
   1105.0  4.98605e+03
   1106.0  4.99586e+03
   1107.0  5.00569e+03
   1108.0  5.01553e+03
   1109.0  5.02538e+03
   1110.0  5.03526e+03
   1111.0  5.04514e+03
   1112.0  5.05504e+03
   1113.0  5.06496e+03
   1114.0  5.07489e+03
   1115.0  5.08483e+03
   1116.0  5.09479e+03
   1117.0  5.10477e+03
   1118.0  5.11476e+03
   1119.0  5.12476e+03
   1120.0  5.13478e+03
   1121.0  5.14482e+03
   1122.0  5.15487e+03
   1123.0  5.16493e+03
   1124.0  5.17501e+03
   1125.0  5.18510e+03
   1126.0  5.19521e+03
   1127.0  5.20534e+03
   1128.0  5.21548e+03
   1129.0  5.22563e+03
   1130.0  5.23580e+03
   1131.0  5.24598e+03
   1132.0  5.25618e+03
   1133.0  5.26640e+03
   1134.0  5.27663e+03
   1135.0  5.28687e+03
   1136.0  5.29713e+03
   1137.0  5.30741e+03
   1138.0  5.31770e+03
   1139.0  5.32801e+03
   1140.0  5.33833e+03
   1141.0  5.34866e+03
   1142.0  5.35902e+03
   1143.0  5.36938e+03
   1144.0  5.37977e+03
   1145.0  5.39016e+03
   1146.0  5.40058e+03
   1147.0  5.41101e+03
   1148.0  5.42145e+03
   1149.0  5.43191e+03
   1150.0  5.44238e+03
   1151.0  5.45287e+03
   1152.0  5.46338e+03
   1153.0  5.47390e+03
   1154.0  5.48444e+03
   1155.0  5.49499e+03
   1156.0  5.50556e+03
   1157.0  5.51614e+03
   1158.0  5.52674e+03
   1159.0  5.53736e+03
   1160.0  5.54799e+03
   1161.0  5.55863e+03
   1162.0  5.56929e+03
   1163.0  5.57997e+03
   1164.0  5.59066e+03
   1165.0  5.60137e+03
   1166.0  5.61210e+03
   1167.0  5.62284e+03
   1168.0  5.63359e+03
   1169.0  5.64437e+03
   1170.0  5.65515e+03
   1171.0  5.66596e+03
   1172.0  5.67678e+03
   1173.0  5.68761e+03
   1174.0  5.69846e+03
   1175.0  5.70933e+03
   1176.0  5.72021e+03
   1177.0  5.73111e+03
   1178.0  5.74203e+03
   1179.0  5.75296e+03
   1180.0  5.76390e+03
   1181.0  5.77487e+03
   1182.0  5.78585e+03
   1183.0  5.79684e+03
   1184.0  5.80785e+03
   1185.0  5.81888e+03
   1186.0  5.82992e+03
   1187.0  5.84098e+03
   1188.0  5.85206e+03
   1189.0  5.86315e+03
   1190.0  5.87426e+03
   1191.0  5.88538e+03
   1192.0  5.89652e+03
   1193.0  5.90768e+03
   1194.0  5.91885e+03
   1195.0  5.93004e+03
   1196.0  5.94125e+03
   1197.0  5.95247e+03
   1198.0  5.96371e+03
   1199.0  5.97496e+03
   1200.0  5.98623e+03
   1201.0  5.99752e+03
   1202.0  6.00882e+03
   1203.0  6.02014e+03
   1204.0  6.03148e+03
   1205.0  6.04283e+03
   1206.0  6.05420e+03
   1207.0  6.06559e+03
   1208.0  6.07699e+03
   1209.0  6.08841e+03
   1210.0  6.09985e+03
   1211.0  6.11130e+03
   1212.0  6.12277e+03
   1213.0  6.13426e+03
   1214.0  6.14576e+03
   1215.0  6.15728e+03
   1216.0  6.16881e+03
   1217.0  6.18037e+03
   1218.0  6.19194e+03
   1219.0  6.20352e+03
   1220.0  6.21512e+03
   1221.0  6.22674e+03
   1222.0  6.23838e+03
   1223.0  6.25003e+03
   1224.0  6.26170e+03
   1225.0  6.27339e+03
   1226.0  6.28510e+03
   1227.0  6.29682e+03
   1228.0  6.30855e+03
   1229.0  6.32031e+03
   1230.0  6.33208e+03
   1231.0  6.34387e+03
   1232.0  6.35567e+03
   1233.0  6.36750e+03
   1234.0  6.37934e+03
   1235.0  6.39119e+03
   1236.0  6.40307e+03
   1237.0  6.41496e+03
   1238.0  6.42687e+03
   1239.0  6.43879e+03
   1240.0  6.45073e+03
   1241.0  6.46269e+03
   1242.0  6.47467e+03
   1243.0  6.48666e+03
   1244.0  6.49868e+03
   1245.0  6.51070e+03
   1246.0  6.52275e+03
   1247.0  6.53481e+03
   1248.0  6.54689e+03
   1249.0  6.55899e+03
   1250.0  6.57111e+03
   1251.0  6.58324e+03
   1252.0  6.59539e+03
   1253.0  6.60756e+03
   1254.0  6.61974e+03
   1255.0  6.63194e+03
   1256.0  6.64416e+03
   1257.0  6.65640e+03
   1258.0  6.66865e+03
   1259.0  6.68093e+03
   1260.0  6.69322e+03
   1261.0  6.70552e+03
   1262.0  6.71785e+03
   1263.0  6.73019e+03
   1264.0  6.74255e+03
   1265.0  6.75493e+03
   1266.0  6.76733e+03
   1267.0  6.77974e+03
   1268.0  6.79217e+03
   1269.0  6.80462e+03
   1270.0  6.81709e+03
   1271.0  6.82957e+03
   1272.0  6.84207e+03
   1273.0  6.85459e+03
   1274.0  6.86713e+03
   1275.0  6.87969e+03
   1276.0  6.89226e+03
   1277.0  6.90485e+03
   1278.0  6.91746e+03
   1279.0  6.93009e+03
   1280.0  6.94273e+03
   1281.0  6.95540e+03
   1282.0  6.96808e+03
   1283.0  6.98078e+03
   1284.0  6.99349e+03
   1285.0  7.00623e+03
   1286.0  7.01898e+03
   1287.0  7.03175e+03
   1288.0  7.04454e+03
   1289.0  7.05735e+03
   1290.0  7.07018e+03
   1291.0  7.08302e+03
   1292.0  7.09588e+03
   1293.0  7.10877e+03
   1294.0  7.12166e+03
   1295.0  7.13458e+03
   1296.0  7.14752e+03
   1297.0  7.16047e+03
   1298.0  7.17344e+03
   1299.0  7.18643e+03
   1300.0  7.19944e+03
   1301.0  7.21247e+03
   1302.0  7.22552e+03
   1303.0  7.23858e+03
   1304.0  7.25166e+03
   1305.0  7.26476e+03
   1306.0  7.27788e+03
   1307.0  7.29102e+03
   1308.0  7.30418e+03
   1309.0  7.31735e+03
   1310.0  7.33055e+03
   1311.0  7.34376e+03
   1312.0  7.35699e+03
   1313.0  7.37024e+03
   1314.0  7.38351e+03
   1315.0  7.39679e+03
   1316.0  7.41010e+03
   1317.0  7.42342e+03
   1318.0  7.43677e+03
   1319.0  7.45013e+03
   1320.0  7.46351e+03
   1321.0  7.47691e+03
   1322.0  7.49033e+03
   1323.0  7.50376e+03
   1324.0  7.51722e+03
   1325.0  7.53069e+03
   1326.0  7.54419e+03
   1327.0  7.55770e+03
   1328.0  7.57123e+03
   1329.0  7.58478e+03
   1330.0  7.59835e+03
   1331.0  7.61194e+03
   1332.0  7.62555e+03
   1333.0  7.63917e+03
   1334.0  7.65282e+03
   1335.0  7.66648e+03
   1336.0  7.68017e+03
   1337.0  7.69387e+03
   1338.0  7.70759e+03
   1339.0  7.72134e+03
   1340.0  7.73510e+03
   1341.0  7.74888e+03
   1342.0  7.76267e+03
   1343.0  7.77649e+03
   1344.0  7.79033e+03
   1345.0  7.80419e+03
   1346.0  7.81806e+03
   1347.0  7.83196e+03
   1348.0  7.84587e+03
   1349.0  7.85981e+03
   1350.0  7.87376e+03
   1351.0  7.88774e+03
   1352.0  7.90173e+03
   1353.0  7.91574e+03
   1354.0  7.92977e+03
   1355.0  7.94382e+03
   1356.0  7.95789e+03
   1357.0  7.97198e+03
   1358.0  7.98609e+03
   1359.0  8.00022e+03
   1360.0  8.01437e+03
   1361.0  8.02854e+03
   1362.0  8.04273e+03
   1363.0  8.05694e+03
   1364.0  8.07117e+03
   1365.0  8.08541e+03
   1366.0  8.09968e+03
   1367.0  8.11397e+03
   1368.0  8.12827e+03
   1369.0  8.14260e+03
   1370.0  8.15695e+03
   1371.0  8.17131e+03
   1372.0  8.18570e+03
   1373.0  8.20011e+03
   1374.0  8.21453e+03
   1375.0  8.22898e+03
   1376.0  8.24344e+03
   1377.0  8.25793e+03
   1378.0  8.27244e+03
   1379.0  8.28696e+03
   1380.0  8.30151e+03
   1381.0  8.31607e+03
   1382.0  8.33066e+03
   1383.0  8.34527e+03
   1384.0  8.35989e+03
   1385.0  8.37454e+03
   1386.0  8.38921e+03
   1387.0  8.40389e+03
   1388.0  8.41860e+03
   1389.0  8.43333e+03
   1390.0  8.44808e+03
   1391.0  8.46284e+03
   1392.0  8.47763e+03
   1393.0  8.49244e+03
   1394.0  8.50727e+03
   1395.0  8.52212e+03
   1396.0  8.53699e+03
   1397.0  8.55188e+03
   1398.0  8.56679e+03
   1399.0  8.58172e+03
   1400.0  8.59667e+03
   1401.0  8.61165e+03
   1402.0  8.62664e+03
   1403.0  8.64165e+03
   1404.0  8.65668e+03
   1405.0  8.67174e+03
   1406.0  8.68681e+03
   1407.0  8.70191e+03
   1408.0  8.71703e+03
   1409.0  8.73216e+03
   1410.0  8.74732e+03
   1411.0  8.76250e+03
   1412.0  8.77770e+03
   1413.0  8.79292e+03
   1414.0  8.80816e+03
   1415.0  8.82342e+03
   1416.0  8.83870e+03
   1417.0  8.85401e+03
   1418.0  8.86933e+03
   1419.0  8.88468e+03
   1420.0  8.90004e+03
   1421.0  8.91543e+03
   1422.0  8.93084e+03
   1423.0  8.94627e+03
   1424.0  8.96172e+03
   1425.0  8.97719e+03
   1426.0  8.99268e+03
   1427.0  9.00819e+03
   1428.0  9.02373e+03
   1429.0  9.03928e+03
   1430.0  9.05486e+03
   1431.0  9.07046e+03
   1432.0  9.08608e+03
   1433.0  9.10172e+03
   1434.0  9.11738e+03
   1435.0  9.13306e+03
   1436.0  9.14876e+03
   1437.0  9.16449e+03
   1438.0  9.18024e+03
   1439.0  9.19600e+03
   1440.0  9.21179e+03
   1441.0  9.22760e+03
   1442.0  9.24343e+03
   1443.0  9.25929e+03
   1444.0  9.27516e+03
   1445.0  9.29106e+03
   1446.0  9.30698e+03
   1447.0  9.32292e+03
   1448.0  9.33888e+03
   1449.0  9.35486e+03
   1450.0  9.37087e+03
   1451.0  9.38689e+03
   1452.0  9.40294e+03
   1453.0  9.41901e+03
   1454.0  9.43510e+03
   1455.0  9.45121e+03
   1456.0  9.46735e+03
   1457.0  9.48350e+03
   1458.0  9.49968e+03
   1459.0  9.51588e+03
   1460.0  9.53210e+03
   1461.0  9.54834e+03
   1462.0  9.56461e+03
   1463.0  9.58090e+03
   1464.0  9.59720e+03
   1465.0  9.61354e+03
   1466.0  9.62989e+03
   1467.0  9.64626e+03
   1468.0  9.66266e+03
   1469.0  9.67908e+03
   1470.0  9.69552e+03
   1471.0  9.71198e+03
   1472.0  9.72847e+03
   1473.0  9.74498e+03
   1474.0  9.76150e+03
   1475.0  9.77806e+03
   1476.0  9.79463e+03
   1477.0  9.81123e+03
   1478.0  9.82784e+03
   1479.0  9.84448e+03
   1480.0  9.86115e+03
   1481.0  9.87783e+03
   1482.0  9.89454e+03
   1483.0  9.91127e+03
   1484.0  9.92802e+03
   1485.0  9.94480e+03
   1486.0  9.96159e+03
   1487.0  9.97841e+03
   1488.0  9.99525e+03
   1489.0  1.00121e+04
   1490.0  1.00290e+04
   1491.0  1.00459e+04
   1492.0  1.00628e+04
   1493.0  1.00798e+04
   1494.0  1.00968e+04
   1495.0  1.01138e+04
   1496.0  1.01308e+04
   1497.0  1.01478e+04
   1498.0  1.01649e+04
   1499.0  1.01820e+04
   1500.0  1.01991e+04
   1501.0  1.02163e+04
   1502.0  1.02334e+04
   1503.0  1.02506e+04
   1504.0  1.02678e+04
   1505.0  1.02850e+04
   1506.0  1.03023e+04
   1507.0  1.03195e+04
   1508.0  1.03368e+04
   1509.0  1.03542e+04
   1510.0  1.03715e+04
   1511.0  1.03889e+04
   1512.0  1.04063e+04
   1513.0  1.04237e+04
   1514.0  1.04411e+04
   1515.0  1.04586e+04
   1516.0  1.04760e+04
   1517.0  1.04935e+04
   1518.0  1.05111e+04
   1519.0  1.05286e+04
   1520.0  1.05462e+04
   1521.0  1.05638e+04
   1522.0  1.05814e+04
   1523.0  1.05990e+04
   1524.0  1.06167e+04
   1525.0  1.06344e+04
   1526.0  1.06521e+04
   1527.0  1.06699e+04
   1528.0  1.06876e+04
   1529.0  1.07054e+04
   1530.0  1.07232e+04
   1531.0  1.07410e+04
   1532.0  1.07589e+04
   1533.0  1.07768e+04
   1534.0  1.07947e+04
   1535.0  1.08126e+04
   1536.0  1.08305e+04
   1537.0  1.08485e+04
   1538.0  1.08665e+04
   1539.0  1.08845e+04
   1540.0  1.09026e+04
   1541.0  1.09206e+04
   1542.0  1.09387e+04
   1543.0  1.09568e+04
   1544.0  1.09750e+04
   1545.0  1.09931e+04
   1546.0  1.10113e+04
   1547.0  1.10295e+04
   1548.0  1.10477e+04
   1549.0  1.10660e+04
   1550.0  1.10843e+04
   1551.0  1.11026e+04
   1552.0  1.11209e+04
   1553.0  1.11393e+04
   1554.0  1.11576e+04
   1555.0  1.11760e+04
   1556.0  1.11945e+04
   1557.0  1.12129e+04
   1558.0  1.12314e+04
   1559.0  1.12499e+04
   1560.0  1.12684e+04
   1561.0  1.12870e+04
   1562.0  1.13055e+04
   1563.0  1.13241e+04
   1564.0  1.13427e+04
   1565.0  1.13614e+04
   1566.0  1.13800e+04
   1567.0  1.13987e+04
   1568.0  1.14174e+04
   1569.0  1.14362e+04
   1570.0  1.14549e+04
   1571.0  1.14737e+04
   1572.0  1.14925e+04
   1573.0  1.15114e+04
   1574.0  1.15302e+04
   1575.0  1.15491e+04
   1576.0  1.15680e+04
   1577.0  1.15870e+04
   1578.0  1.16059e+04
   1579.0  1.16249e+04
   1580.0  1.16439e+04
   1581.0  1.16630e+04
   1582.0  1.16820e+04
   1583.0  1.17011e+04
   1584.0  1.17202e+04
   1585.0  1.17393e+04
   1586.0  1.17585e+04
   1587.0  1.17777e+04
   1588.0  1.17969e+04
   1589.0  1.18161e+04
   1590.0  1.18354e+04
   1591.0  1.18547e+04
   1592.0  1.18740e+04
   1593.0  1.18933e+04
   1594.0  1.19127e+04
   1595.0  1.19320e+04
   1596.0  1.19514e+04
   1597.0  1.19709e+04
   1598.0  1.19903e+04
   1599.0  1.20098e+04
   1600.0  1.20293e+04
   1601.0  1.20488e+04
   1602.0  1.20684e+04
   1603.0  1.20880e+04
   1604.0  1.21076e+04
   1605.0  1.21272e+04
   1606.0  1.21469e+04
   1607.0  1.21666e+04
   1608.0  1.21863e+04
   1609.0  1.22060e+04
   1610.0  1.22258e+04
   1611.0  1.22456e+04
   1612.0  1.22654e+04
   1613.0  1.22852e+04
   1614.0  1.23051e+04
   1615.0  1.23250e+04
   1616.0  1.23449e+04
   1617.0  1.23648e+04
   1618.0  1.23848e+04
   1619.0  1.24048e+04
   1620.0  1.24248e+04
   1621.0  1.24448e+04
   1622.0  1.24649e+04
   1623.0  1.24850e+04
   1624.0  1.25051e+04
   1625.0  1.25252e+04
   1626.0  1.25454e+04
   1627.0  1.25656e+04
   1628.0  1.25858e+04
   1629.0  1.26061e+04
   1630.0  1.26263e+04
   1631.0  1.26466e+04
   1632.0  1.26670e+04
   1633.0  1.26873e+04
   1634.0  1.27077e+04
   1635.0  1.27281e+04
   1636.0  1.27485e+04
   1637.0  1.27690e+04
   1638.0  1.27894e+04
   1639.0  1.28099e+04
   1640.0  1.28305e+04
   1641.0  1.28510e+04
   1642.0  1.28716e+04
   1643.0  1.28922e+04
   1644.0  1.29129e+04
   1645.0  1.29335e+04
   1646.0  1.29542e+04
   1647.0  1.29749e+04
   1648.0  1.29957e+04
   1649.0  1.30165e+04
   1650.0  1.30372e+04
   1651.0  1.30581e+04
   1652.0  1.30789e+04
   1653.0  1.30998e+04
   1654.0  1.31207e+04
   1655.0  1.31416e+04
   1656.0  1.31626e+04
   1657.0  1.31836e+04
   1658.0  1.32046e+04
   1659.0  1.32256e+04
   1660.0  1.32467e+04
   1661.0  1.32677e+04
   1662.0  1.32889e+04
   1663.0  1.33100e+04
   1664.0  1.33312e+04
   1665.0  1.33524e+04
   1666.0  1.33736e+04
   1667.0  1.33948e+04
   1668.0  1.34161e+04
   1669.0  1.34374e+04
   1670.0  1.34587e+04
   1671.0  1.34801e+04
   1672.0  1.35015e+04
   1673.0  1.35229e+04
   1674.0  1.35443e+04
   1675.0  1.35658e+04
   1676.0  1.35873e+04
   1677.0  1.36088e+04
   1678.0  1.36303e+04
   1679.0  1.36519e+04
   1680.0  1.36735e+04
   1681.0  1.36951e+04
   1682.0  1.37168e+04
   1683.0  1.37384e+04
   1684.0  1.37602e+04
   1685.0  1.37819e+04
   1686.0  1.38036e+04
   1687.0  1.38254e+04
   1688.0  1.38473e+04
   1689.0  1.38691e+04
   1690.0  1.38910e+04
   1691.0  1.39129e+04
   1692.0  1.39348e+04
   1693.0  1.39567e+04
   1694.0  1.39787e+04
   1695.0  1.40007e+04
   1696.0  1.40228e+04
   1697.0  1.40448e+04
   1698.0  1.40669e+04
   1699.0  1.40890e+04
   1700.0  1.41112e+04
   1701.0  1.41334e+04
   1702.0  1.41556e+04
   1703.0  1.41778e+04
   1704.0  1.42000e+04
   1705.0  1.42223e+04
   1706.0  1.42446e+04
   1707.0  1.42670e+04
   1708.0  1.42894e+04
   1709.0  1.43118e+04
   1710.0  1.43342e+04
   1711.0  1.43566e+04
   1712.0  1.43791e+04
   1713.0  1.44016e+04
   1714.0  1.44242e+04
   1715.0  1.44467e+04
   1716.0  1.44693e+04
   1717.0  1.44919e+04
   1718.0  1.45146e+04
   1719.0  1.45373e+04
   1720.0  1.45600e+04
   1721.0  1.45827e+04
   1722.0  1.46055e+04
   1723.0  1.46282e+04
   1724.0  1.46511e+04
   1725.0  1.46739e+04
   1726.0  1.46968e+04
   1727.0  1.47197e+04
   1728.0  1.47426e+04
   1729.0  1.47656e+04
   1730.0  1.47886e+04
   1731.0  1.48116e+04
   1732.0  1.48346e+04
   1733.0  1.48577e+04
   1734.0  1.48808e+04
   1735.0  1.49039e+04
   1736.0  1.49271e+04
   1737.0  1.49503e+04
   1738.0  1.49735e+04
   1739.0  1.49967e+04
   1740.0  1.50200e+04
   1741.0  1.50433e+04
   1742.0  1.50666e+04
   1743.0  1.50900e+04
   1744.0  1.51134e+04
   1745.0  1.51368e+04
   1746.0  1.51603e+04
   1747.0  1.51837e+04
   1748.0  1.52072e+04
   1749.0  1.52308e+04
   1750.0  1.52543e+04
   1751.0  1.52779e+04
   1752.0  1.53015e+04
   1753.0  1.53252e+04
   1754.0  1.53489e+04
   1755.0  1.53726e+04
   1756.0  1.53963e+04
   1757.0  1.54201e+04
   1758.0  1.54439e+04
   1759.0  1.54677e+04
   1760.0  1.54916e+04
   1761.0  1.55154e+04
   1762.0  1.55393e+04
   1763.0  1.55633e+04
   1764.0  1.55873e+04
   1765.0  1.56113e+04
   1766.0  1.56353e+04
   1767.0  1.56593e+04
   1768.0  1.56834e+04
   1769.0  1.57076e+04
   1770.0  1.57317e+04
   1771.0  1.57559e+04
   1772.0  1.57801e+04
   1773.0  1.58043e+04
   1774.0  1.58286e+04
   1775.0  1.58529e+04
   1776.0  1.58772e+04
   1777.0  1.59016e+04
   1778.0  1.59259e+04
   1779.0  1.59504e+04
   1780.0  1.59748e+04
   1781.0  1.59993e+04
   1782.0  1.60238e+04
   1783.0  1.60483e+04
   1784.0  1.60729e+04
   1785.0  1.60975e+04
   1786.0  1.61221e+04
   1787.0  1.61467e+04
   1788.0  1.61714e+04
   1789.0  1.61961e+04
   1790.0  1.62209e+04
   1791.0  1.62456e+04
   1792.0  1.62704e+04
   1793.0  1.62953e+04
   1794.0  1.63201e+04
   1795.0  1.63450e+04
   1796.0  1.63700e+04
   1797.0  1.63949e+04
   1798.0  1.64199e+04
   1799.0  1.64449e+04
   1800.0  1.64700e+04
   1801.0  1.64950e+04
   1802.0  1.65201e+04
   1803.0  1.65453e+04
   1804.0  1.65704e+04
   1805.0  1.65956e+04
   1806.0  1.66209e+04
   1807.0  1.66461e+04
   1808.0  1.66714e+04
   1809.0  1.66967e+04
   1810.0  1.67221e+04
   1811.0  1.67475e+04
   1812.0  1.67729e+04
   1813.0  1.67983e+04
   1814.0  1.68238e+04
   1815.0  1.68493e+04
   1816.0  1.68748e+04
   1817.0  1.69004e+04
   1818.0  1.69260e+04
   1819.0  1.69516e+04
   1820.0  1.69773e+04
   1821.0  1.70029e+04
   1822.0  1.70287e+04
   1823.0  1.70544e+04
   1824.0  1.70802e+04
   1825.0  1.71060e+04
   1826.0  1.71318e+04
   1827.0  1.71577e+04
   1828.0  1.71836e+04
   1829.0  1.72095e+04
   1830.0  1.72355e+04
   1831.0  1.72615e+04
   1832.0  1.72875e+04
   1833.0  1.73136e+04
   1834.0  1.73397e+04
   1835.0  1.73658e+04
   1836.0  1.73920e+04
   1837.0  1.74182e+04
   1838.0  1.74444e+04
   1839.0  1.74706e+04
   1840.0  1.74969e+04
   1841.0  1.75232e+04
   1842.0  1.75495e+04
   1843.0  1.75759e+04
   1844.0  1.76023e+04
   1845.0  1.76288e+04
   1846.0  1.76552e+04
   1847.0  1.76817e+04
   1848.0  1.77083e+04
   1849.0  1.77348e+04
   1850.0  1.77614e+04
   1851.0  1.77880e+04
   1852.0  1.78147e+04
   1853.0  1.78414e+04
   1854.0  1.78681e+04
   1855.0  1.78949e+04
   1856.0  1.79216e+04
   1857.0  1.79485e+04
   1858.0  1.79753e+04
   1859.0  1.80022e+04
   1860.0  1.80291e+04
   1861.0  1.80561e+04
   1862.0  1.80830e+04
   1863.0  1.81100e+04
   1864.0  1.81371e+04
   1865.0  1.81642e+04
   1866.0  1.81913e+04
   1867.0  1.82184e+04
   1868.0  1.82456e+04
   1869.0  1.82728e+04
   1870.0  1.83000e+04
   1871.0  1.83273e+04
   1872.0  1.83546e+04
   1873.0  1.83819e+04
   1874.0  1.84093e+04
   1875.0  1.84367e+04
   1876.0  1.84641e+04
   1877.0  1.84915e+04
   1878.0  1.85190e+04
   1879.0  1.85466e+04
   1880.0  1.85741e+04
   1881.0  1.86017e+04
   1882.0  1.86293e+04
   1883.0  1.86570e+04
   1884.0  1.86847e+04
   1885.0  1.87124e+04
   1886.0  1.87401e+04
   1887.0  1.87679e+04
   1888.0  1.87957e+04
   1889.0  1.88236e+04
   1890.0  1.88515e+04
   1891.0  1.88794e+04
   1892.0  1.89074e+04
   1893.0  1.89353e+04
   1894.0  1.89633e+04
   1895.0  1.89914e+04
   1896.0  1.90195e+04
   1897.0  1.90476e+04
   1898.0  1.90757e+04
   1899.0  1.91039e+04
   1900.0  1.91321e+04
   1901.0  1.91604e+04
   1902.0  1.91887e+04
   1903.0  1.92170e+04
   1904.0  1.92453e+04
   1905.0  1.92737e+04
   1906.0  1.93021e+04
   1907.0  1.93306e+04
   1908.0  1.93590e+04
   1909.0  1.93876e+04
   1910.0  1.94161e+04
   1911.0  1.94447e+04
   1912.0  1.94733e+04
   1913.0  1.95019e+04
   1914.0  1.95306e+04
   1915.0  1.95593e+04
   1916.0  1.95881e+04
   1917.0  1.96169e+04
   1918.0  1.96457e+04
   1919.0  1.96745e+04
   1920.0  1.97034e+04
   1921.0  1.97323e+04
   1922.0  1.97613e+04
   1923.0  1.97902e+04
   1924.0  1.98193e+04
   1925.0  1.98483e+04
   1926.0  1.98774e+04
   1927.0  1.99065e+04
   1928.0  1.99357e+04
   1929.0  1.99648e+04
   1930.0  1.99941e+04
   1931.0  2.00233e+04
   1932.0  2.00526e+04
   1933.0  2.00819e+04
   1934.0  2.01113e+04
   1935.0  2.01407e+04
   1936.0  2.01701e+04
   1937.0  2.01995e+04
   1938.0  2.02290e+04
   1939.0  2.02586e+04
   1940.0  2.02881e+04
   1941.0  2.03177e+04
   1942.0  2.03473e+04
   1943.0  2.03770e+04
   1944.0  2.04067e+04
   1945.0  2.04364e+04
   1946.0  2.04662e+04
   1947.0  2.04960e+04
   1948.0  2.05258e+04
   1949.0  2.05557e+04
   1950.0  2.05856e+04
   1951.0  2.06155e+04
   1952.0  2.06455e+04
   1953.0  2.06755e+04
   1954.0  2.07056e+04
   1955.0  2.07356e+04
   1956.0  2.07658e+04
   1957.0  2.07959e+04
   1958.0  2.08261e+04
   1959.0  2.08563e+04
   1960.0  2.08865e+04
   1961.0  2.09168e+04
   1962.0  2.09472e+04
   1963.0  2.09775e+04
   1964.0  2.10079e+04
   1965.0  2.10383e+04
   1966.0  2.10688e+04
   1967.0  2.10993e+04
   1968.0  2.11298e+04
   1969.0  2.11604e+04
   1970.0  2.11910e+04
   1971.0  2.12216e+04
   1972.0  2.12523e+04
   1973.0  2.12830e+04
   1974.0  2.13137e+04
   1975.0  2.13445e+04
   1976.0  2.13753e+04
   1977.0  2.14061e+04
   1978.0  2.14370e+04
   1979.0  2.14679e+04
   1980.0  2.14989e+04
   1981.0  2.15299e+04
   1982.0  2.15609e+04
   1983.0  2.15920e+04
   1984.0  2.16231e+04
   1985.0  2.16542e+04
   1986.0  2.16854e+04
   1987.0  2.17166e+04
   1988.0  2.17478e+04
   1989.0  2.17791e+04
   1990.0  2.18104e+04
   1991.0  2.18417e+04
   1992.0  2.18731e+04
   1993.0  2.19045e+04
   1994.0  2.19360e+04
   1995.0  2.19674e+04
   1996.0  2.19990e+04
   1997.0  2.20305e+04
   1998.0  2.20621e+04
   1999.0  2.20937e+04
   2000.0  2.21254e+04
   2001.0  2.21571e+04
   2002.0  2.21888e+04
   2003.0  2.22206e+04
   2004.0  2.22524e+04
   2005.0  2.22843e+04
   2006.0  2.23162e+04
   2007.0  2.23481e+04
   2008.0  2.23800e+04
   2009.0  2.24120e+04
   2010.0  2.24440e+04
   2011.0  2.24761e+04
   2012.0  2.25082e+04
   2013.0  2.25403e+04
   2014.0  2.25725e+04
   2015.0  2.26047e+04
   2016.0  2.26370e+04
   2017.0  2.26692e+04
   2018.0  2.27016e+04
   2019.0  2.27339e+04
   2020.0  2.27663e+04
   2021.0  2.27987e+04
   2022.0  2.28312e+04
   2023.0  2.28637e+04
   2024.0  2.28962e+04
   2025.0  2.29288e+04
   2026.0  2.29614e+04
   2027.0  2.29941e+04
   2028.0  2.30267e+04
   2029.0  2.30595e+04
   2030.0  2.30922e+04
   2031.0  2.31250e+04
   2032.0  2.31578e+04
   2033.0  2.31907e+04
   2034.0  2.32236e+04
   2035.0  2.32566e+04
   2036.0  2.32895e+04
   2037.0  2.33226e+04
   2038.0  2.33556e+04
   2039.0  2.33887e+04
   2040.0  2.34218e+04
   2041.0  2.34550e+04
   2042.0  2.34882e+04
   2043.0  2.35214e+04
   2044.0  2.35547e+04
   2045.0  2.35880e+04
   2046.0  2.36214e+04
   2047.0  2.36548e+04
   2048.0  2.36882e+04
   2049.0  2.37216e+04
   2050.0  2.37551e+04
   2051.0  2.37887e+04
   2052.0  2.38223e+04
   2053.0  2.38559e+04
   2054.0  2.38895e+04
   2055.0  2.39232e+04
   2056.0  2.39569e+04
   2057.0  2.39907e+04
   2058.0  2.40245e+04
   2059.0  2.40583e+04
   2060.0  2.40922e+04
   2061.0  2.41261e+04
   2062.0  2.41601e+04
   2063.0  2.41941e+04
   2064.0  2.42281e+04
   2065.0  2.42622e+04
   2066.0  2.42963e+04
   2067.0  2.43304e+04
   2068.0  2.43646e+04
   2069.0  2.43988e+04
   2070.0  2.44330e+04
   2071.0  2.44673e+04
   2072.0  2.45017e+04
   2073.0  2.45360e+04
   2074.0  2.45704e+04
   2075.0  2.46049e+04
   2076.0  2.46394e+04
   2077.0  2.46739e+04
   2078.0  2.47085e+04
   2079.0  2.47431e+04
   2080.0  2.47777e+04
   2081.0  2.48124e+04
   2082.0  2.48471e+04
   2083.0  2.48818e+04
   2084.0  2.49166e+04
   2085.0  2.49514e+04
   2086.0  2.49863e+04
   2087.0  2.50212e+04
   2088.0  2.50562e+04
   2089.0  2.50911e+04
   2090.0  2.51262e+04
   2091.0  2.51612e+04
   2092.0  2.51963e+04
   2093.0  2.52315e+04
   2094.0  2.52666e+04
   2095.0  2.53019e+04
   2096.0  2.53371e+04
   2097.0  2.53724e+04
   2098.0  2.54077e+04
   2099.0  2.54431e+04
   2100.0  2.54785e+04
   2101.0  2.55140e+04
   2102.0  2.55494e+04
   2103.0  2.55850e+04
   2104.0  2.56205e+04
   2105.0  2.56561e+04
   2106.0  2.56918e+04
   2107.0  2.57275e+04
   2108.0  2.57632e+04
   2109.0  2.57989e+04
   2110.0  2.58347e+04
   2111.0  2.58706e+04
   2112.0  2.59065e+04
   2113.0  2.59424e+04
   2114.0  2.59783e+04
   2115.0  2.60143e+04
   2116.0  2.60504e+04
   2117.0  2.60864e+04
   2118.0  2.61226e+04
   2119.0  2.61587e+04
   2120.0  2.61949e+04
   2121.0  2.62311e+04
   2122.0  2.62674e+04
   2123.0  2.63037e+04
   2124.0  2.63401e+04
   2125.0  2.63765e+04
   2126.0  2.64129e+04
   2127.0  2.64494e+04
   2128.0  2.64859e+04
   2129.0  2.65224e+04
   2130.0  2.65590e+04
   2131.0  2.65956e+04
   2132.0  2.66323e+04
   2133.0  2.66690e+04
   2134.0  2.67058e+04
   2135.0  2.67426e+04
   2136.0  2.67794e+04
   2137.0  2.68163e+04
   2138.0  2.68532e+04
   2139.0  2.68901e+04
   2140.0  2.69271e+04
   2141.0  2.69641e+04
   2142.0  2.70012e+04
   2143.0  2.70383e+04
   2144.0  2.70755e+04
   2145.0  2.71127e+04
   2146.0  2.71499e+04
   2147.0  2.71872e+04
   2148.0  2.72245e+04
   2149.0  2.72618e+04
   2150.0  2.72992e+04
   2151.0  2.73367e+04
   2152.0  2.73741e+04
   2153.0  2.74116e+04
   2154.0  2.74492e+04
   2155.0  2.74868e+04
   2156.0  2.75244e+04
   2157.0  2.75621e+04
   2158.0  2.75998e+04
   2159.0  2.76376e+04
   2160.0  2.76754e+04
   2161.0  2.77132e+04
   2162.0  2.77511e+04
   2163.0  2.77890e+04
   2164.0  2.78270e+04
   2165.0  2.78650e+04
   2166.0  2.79030e+04
   2167.0  2.79411e+04
   2168.0  2.79792e+04
   2169.0  2.80174e+04
   2170.0  2.80556e+04
   2171.0  2.80939e+04
   2172.0  2.81322e+04
   2173.0  2.81705e+04
   2174.0  2.82089e+04
   2175.0  2.82473e+04
   2176.0  2.82857e+04
   2177.0  2.83242e+04
   2178.0  2.83628e+04
   2179.0  2.84013e+04
   2180.0  2.84400e+04
   2181.0  2.84786e+04
   2182.0  2.85173e+04
   2183.0  2.85561e+04
   2184.0  2.85948e+04
   2185.0  2.86337e+04
   2186.0  2.86725e+04
   2187.0  2.87114e+04
   2188.0  2.87504e+04
   2189.0  2.87894e+04
   2190.0  2.88284e+04
   2191.0  2.88675e+04
   2192.0  2.89066e+04
   2193.0  2.89458e+04
   2194.0  2.89850e+04
   2195.0  2.90242e+04
   2196.0  2.90635e+04
   2197.0  2.91028e+04
   2198.0  2.91422e+04
   2199.0  2.91816e+04
   2200.0  2.92211e+04
   2201.0  2.92606e+04
   2202.0  2.93001e+04
   2203.0  2.93397e+04
   2204.0  2.93793e+04
   2205.0  2.94190e+04
   2206.0  2.94587e+04
   2207.0  2.94984e+04
   2208.0  2.95382e+04
   2209.0  2.95780e+04
   2210.0  2.96179e+04
   2211.0  2.96578e+04
   2212.0  2.96978e+04
   2213.0  2.97378e+04
   2214.0  2.97778e+04
   2215.0  2.98179e+04
   2216.0  2.98580e+04
   2217.0  2.98982e+04
   2218.0  2.99384e+04
   2219.0  2.99787e+04
   2220.0  3.00190e+04
   2221.0  3.00593e+04
   2222.0  3.00997e+04
   2223.0  3.01401e+04
   2224.0  3.01806e+04
   2225.0  3.02211e+04
   2226.0  3.02617e+04
   2227.0  3.03023e+04
   2228.0  3.03429e+04
   2229.0  3.03836e+04
   2230.0  3.04243e+04
   2231.0  3.04651e+04
   2232.0  3.05059e+04
   2233.0  3.05467e+04
   2234.0  3.05876e+04
   2235.0  3.06286e+04
   2236.0  3.06696e+04
   2237.0  3.07106e+04
   2238.0  3.07516e+04
   2239.0  3.07928e+04
   2240.0  3.08339e+04
   2241.0  3.08751e+04
   2242.0  3.09164e+04
   2243.0  3.09576e+04
   2244.0  3.09990e+04
   2245.0  3.10403e+04
   2246.0  3.10818e+04
   2247.0  3.11232e+04
   2248.0  3.11647e+04
   2249.0  3.12063e+04
   2250.0  3.12478e+04
   2251.0  3.12895e+04
   2252.0  3.13312e+04
   2253.0  3.13729e+04
   2254.0  3.14146e+04
   2255.0  3.14564e+04
   2256.0  3.14983e+04
   2257.0  3.15402e+04
   2258.0  3.15821e+04
   2259.0  3.16241e+04
   2260.0  3.16661e+04
   2261.0  3.17082e+04
   2262.0  3.17503e+04
   2263.0  3.17925e+04
   2264.0  3.18347e+04
   2265.0  3.18769e+04
   2266.0  3.19192e+04
   2267.0  3.19615e+04
   2268.0  3.20039e+04
   2269.0  3.20463e+04
   2270.0  3.20888e+04
   2271.0  3.21313e+04
   2272.0  3.21739e+04
   2273.0  3.22165e+04
   2274.0  3.22591e+04
   2275.0  3.23018e+04
   2276.0  3.23445e+04
   2277.0  3.23873e+04
   2278.0  3.24301e+04
   2279.0  3.24730e+04
   2280.0  3.25159e+04
   2281.0  3.25588e+04
   2282.0  3.26018e+04
   2283.0  3.26449e+04
   2284.0  3.26880e+04
   2285.0  3.27311e+04
   2286.0  3.27743e+04
   2287.0  3.28175e+04
   2288.0  3.28607e+04
   2289.0  3.29041e+04
   2290.0  3.29474e+04
   2291.0  3.29908e+04
   2292.0  3.30342e+04
   2293.0  3.30777e+04
   2294.0  3.31213e+04
   2295.0  3.31648e+04
   2296.0  3.32085e+04
   2297.0  3.32521e+04
   2298.0  3.32958e+04
   2299.0  3.33396e+04
   2300.0  3.33834e+04
   2301.0  3.34273e+04
   2302.0  3.34711e+04
   2303.0  3.35151e+04
   2304.0  3.35591e+04
   2305.0  3.36031e+04
   2306.0  3.36472e+04
   2307.0  3.36913e+04
   2308.0  3.37354e+04
   2309.0  3.37797e+04
   2310.0  3.38239e+04
   2311.0  3.38682e+04
   2312.0  3.39126e+04
   2313.0  3.39569e+04
   2314.0  3.40014e+04
   2315.0  3.40459e+04
   2316.0  3.40904e+04
   2317.0  3.41350e+04
   2318.0  3.41796e+04
   2319.0  3.42242e+04
   2320.0  3.42689e+04
   2321.0  3.43137e+04
   2322.0  3.43585e+04
   2323.0  3.44033e+04
   2324.0  3.44482e+04
   2325.0  3.44932e+04
   2326.0  3.45382e+04
   2327.0  3.45832e+04
   2328.0  3.46283e+04
   2329.0  3.46734e+04
   2330.0  3.47186e+04
   2331.0  3.47638e+04
   2332.0  3.48090e+04
   2333.0  3.48543e+04
   2334.0  3.48997e+04
   2335.0  3.49451e+04
   2336.0  3.49905e+04
   2337.0  3.50360e+04
   2338.0  3.50815e+04
   2339.0  3.51271e+04
   2340.0  3.51728e+04
   2341.0  3.52184e+04
   2342.0  3.52642e+04
   2343.0  3.53099e+04
   2344.0  3.53557e+04
   2345.0  3.54016e+04
   2346.0  3.54475e+04
   2347.0  3.54935e+04
   2348.0  3.55395e+04
   2349.0  3.55855e+04
   2350.0  3.56316e+04
   2351.0  3.56777e+04
   2352.0  3.57239e+04
   2353.0  3.57702e+04
   2354.0  3.58164e+04
   2355.0  3.58628e+04
   2356.0  3.59091e+04
   2357.0  3.59555e+04
   2358.0  3.60020e+04
   2359.0  3.60485e+04
   2360.0  3.60951e+04
   2361.0  3.61417e+04
   2362.0  3.61883e+04
   2363.0  3.62350e+04
   2364.0  3.62818e+04
   2365.0  3.63286e+04
   2366.0  3.63754e+04
   2367.0  3.64223e+04
   2368.0  3.64693e+04
   2369.0  3.65162e+04
   2370.0  3.65633e+04
   2371.0  3.66104e+04
   2372.0  3.66575e+04
   2373.0  3.67046e+04
   2374.0  3.67519e+04
   2375.0  3.67991e+04
   2376.0  3.68465e+04
   2377.0  3.68938e+04
   2378.0  3.69412e+04
   2379.0  3.69887e+04
   2380.0  3.70362e+04
   2381.0  3.70837e+04
   2382.0  3.71313e+04
   2383.0  3.71790e+04
   2384.0  3.72267e+04
   2385.0  3.72744e+04
   2386.0  3.73222e+04
   2387.0  3.73700e+04
   2388.0  3.74179e+04
   2389.0  3.74659e+04
   2390.0  3.75138e+04
   2391.0  3.75619e+04
   2392.0  3.76099e+04
   2393.0  3.76581e+04
   2394.0  3.77062e+04
   2395.0  3.77545e+04
   2396.0  3.78027e+04
   2397.0  3.78511e+04
   2398.0  3.78994e+04
   2399.0  3.79478e+04
   2400.0  3.79963e+04
   2401.0  3.80448e+04
   2402.0  3.80934e+04
   2403.0  3.81420e+04
   2404.0  3.81906e+04
   2405.0  3.82393e+04
   2406.0  3.82881e+04
   2407.0  3.83369e+04
   2408.0  3.83857e+04
   2409.0  3.84346e+04
   2410.0  3.84836e+04
   2411.0  3.85325e+04
   2412.0  3.85816e+04
   2413.0  3.86307e+04
   2414.0  3.86798e+04
   2415.0  3.87290e+04
   2416.0  3.87782e+04
   2417.0  3.88275e+04
   2418.0  3.88768e+04
   2419.0  3.89262e+04
   2420.0  3.89757e+04
   2421.0  3.90251e+04
   2422.0  3.90747e+04
   2423.0  3.91242e+04
   2424.0  3.91739e+04
   2425.0  3.92235e+04
   2426.0  3.92733e+04
   2427.0  3.93230e+04
   2428.0  3.93729e+04
   2429.0  3.94227e+04
   2430.0  3.94726e+04
   2431.0  3.95226e+04
   2432.0  3.95726e+04
   2433.0  3.96227e+04
   2434.0  3.96728e+04
   2435.0  3.97230e+04
   2436.0  3.97732e+04
   2437.0  3.98235e+04
   2438.0  3.98738e+04
   2439.0  3.99241e+04
   2440.0  3.99745e+04
   2441.0  4.00250e+04
   2442.0  4.00755e+04
   2443.0  4.01261e+04
   2444.0  4.01767e+04
   2445.0  4.02273e+04
   2446.0  4.02780e+04
   2447.0  4.03288e+04
   2448.0  4.03796e+04
   2449.0  4.04305e+04
   2450.0  4.04814e+04
   2451.0  4.05323e+04
   2452.0  4.05833e+04
   2453.0  4.06344e+04
   2454.0  4.06855e+04
   2455.0  4.07366e+04
   2456.0  4.07879e+04
   2457.0  4.08391e+04
   2458.0  4.08904e+04
   2459.0  4.09418e+04
   2460.0  4.09932e+04
   2461.0  4.10446e+04
   2462.0  4.10961e+04
   2463.0  4.11477e+04
   2464.0  4.11993e+04
   2465.0  4.12509e+04
   2466.0  4.13027e+04
   2467.0  4.13544e+04
   2468.0  4.14062e+04
   2469.0  4.14581e+04
   2470.0  4.15100e+04
   2471.0  4.15619e+04
   2472.0  4.16139e+04
   2473.0  4.16660e+04
   2474.0  4.17181e+04
   2475.0  4.17703e+04
   2476.0  4.18225e+04
   2477.0  4.18747e+04
   2478.0  4.19270e+04
   2479.0  4.19794e+04
   2480.0  4.20318e+04
   2481.0  4.20843e+04
   2482.0  4.21368e+04
   2483.0  4.21893e+04
   2484.0  4.22420e+04
   2485.0  4.22946e+04
   2486.0  4.23473e+04
   2487.0  4.24001e+04
   2488.0  4.24529e+04
   2489.0  4.25058e+04
   2490.0  4.25587e+04
   2491.0  4.26117e+04
   2492.0  4.26647e+04
   2493.0  4.27178e+04
   2494.0  4.27709e+04
   2495.0  4.28241e+04
   2496.0  4.28773e+04
   2497.0  4.29306e+04
   2498.0  4.29839e+04
   2499.0  4.30373e+04
   2500.0  4.30907e+04
   2501.0  4.31442e+04
   2502.0  4.31977e+04
   2503.0  4.32513e+04
   2504.0  4.33049e+04
   2505.0  4.33586e+04
   2506.0  4.34124e+04
   2507.0  4.34661e+04
   2508.0  4.35200e+04
   2509.0  4.35739e+04
   2510.0  4.36278e+04
   2511.0  4.36818e+04
   2512.0  4.37359e+04
   2513.0  4.37900e+04
   2514.0  4.38441e+04
   2515.0  4.38983e+04
   2516.0  4.39526e+04
   2517.0  4.40069e+04
   2518.0  4.40612e+04
   2519.0  4.41156e+04
   2520.0  4.41701e+04
   2521.0  4.42246e+04
   2522.0  4.42792e+04
   2523.0  4.43338e+04
   2524.0  4.43885e+04
   2525.0  4.44432e+04
   2526.0  4.44979e+04
   2527.0  4.45528e+04
   2528.0  4.46076e+04
   2529.0  4.46626e+04
   2530.0  4.47176e+04
   2531.0  4.47726e+04
   2532.0  4.48277e+04
   2533.0  4.48828e+04
   2534.0  4.49380e+04
   2535.0  4.49932e+04
   2536.0  4.50485e+04
   2537.0  4.51039e+04
   2538.0  4.51593e+04
   2539.0  4.52147e+04
   2540.0  4.52702e+04
   2541.0  4.53258e+04
   2542.0  4.53814e+04
   2543.0  4.54371e+04
   2544.0  4.54928e+04
   2545.0  4.55485e+04
   2546.0  4.56044e+04
   2547.0  4.56602e+04
   2548.0  4.57162e+04
   2549.0  4.57721e+04
   2550.0  4.58282e+04
   2551.0  4.58842e+04
   2552.0  4.59404e+04
   2553.0  4.59966e+04
   2554.0  4.60528e+04
   2555.0  4.61091e+04
   2556.0  4.61654e+04
   2557.0  4.62218e+04
   2558.0  4.62783e+04
   2559.0  4.63348e+04
   2560.0  4.63914e+04
   2561.0  4.64480e+04
   2562.0  4.65046e+04
   2563.0  4.65614e+04
   2564.0  4.66181e+04
   2565.0  4.66750e+04
   2566.0  4.67318e+04
   2567.0  4.67888e+04
   2568.0  4.68457e+04
   2569.0  4.69028e+04
   2570.0  4.69599e+04
   2571.0  4.70170e+04
   2572.0  4.70742e+04
   2573.0  4.71315e+04
   2574.0  4.71888e+04
   2575.0  4.72461e+04
   2576.0  4.73035e+04
   2577.0  4.73610e+04
   2578.0  4.74185e+04
   2579.0  4.74761e+04
   2580.0  4.75337e+04
   2581.0  4.75914e+04
   2582.0  4.76491e+04
   2583.0  4.77069e+04
   2584.0  4.77648e+04
   2585.0  4.78227e+04
   2586.0  4.78806e+04
   2587.0  4.79386e+04
   2588.0  4.79967e+04
   2589.0  4.80548e+04
   2590.0  4.81130e+04
   2591.0  4.81712e+04
   2592.0  4.82294e+04
   2593.0  4.82878e+04
   2594.0  4.83461e+04
   2595.0  4.84046e+04
   2596.0  4.84631e+04
   2597.0  4.85216e+04
   2598.0  4.85802e+04
   2599.0  4.86389e+04
   2600.0  4.86976e+04
   2601.0  4.87563e+04
   2602.0  4.88151e+04
   2603.0  4.88740e+04
   2604.0  4.89329e+04
   2605.0  4.89919e+04
   2606.0  4.90510e+04
   2607.0  4.91100e+04
   2608.0  4.91692e+04
   2609.0  4.92284e+04
   2610.0  4.92876e+04
   2611.0  4.93469e+04
   2612.0  4.94063e+04
   2613.0  4.94657e+04
   2614.0  4.95252e+04
   2615.0  4.95847e+04
   2616.0  4.96443e+04
   2617.0  4.97039e+04
   2618.0  4.97636e+04
   2619.0  4.98233e+04
   2620.0  4.98831e+04
   2621.0  4.99430e+04
   2622.0  5.00029e+04
   2623.0  5.00629e+04
   2624.0  5.01229e+04
   2625.0  5.01830e+04
   2626.0  5.02431e+04
   2627.0  5.03033e+04
   2628.0  5.03635e+04
   2629.0  5.04238e+04
   2630.0  5.04841e+04
   2631.0  5.05446e+04
   2632.0  5.06050e+04
   2633.0  5.06655e+04
   2634.0  5.07261e+04
   2635.0  5.07867e+04
   2636.0  5.08474e+04
   2637.0  5.09081e+04
   2638.0  5.09689e+04
   2639.0  5.10298e+04
   2640.0  5.10907e+04
   2641.0  5.11516e+04
   2642.0  5.12126e+04
   2643.0  5.12737e+04
   2644.0  5.13348e+04
   2645.0  5.13960e+04
   2646.0  5.14573e+04
   2647.0  5.15185e+04
   2648.0  5.15799e+04
   2649.0  5.16413e+04
   2650.0  5.17028e+04
   2651.0  5.17643e+04
   2652.0  5.18258e+04
   2653.0  5.18875e+04
   2654.0  5.19491e+04
   2655.0  5.20109e+04
   2656.0  5.20727e+04
   2657.0  5.21345e+04
   2658.0  5.21964e+04
   2659.0  5.22584e+04
   2660.0  5.23204e+04
   2661.0  5.23825e+04
   2662.0  5.24446e+04
   2663.0  5.25068e+04
   2664.0  5.25691e+04
   2665.0  5.26313e+04
   2666.0  5.26937e+04
   2667.0  5.27561e+04
   2668.0  5.28186e+04
   2669.0  5.28811e+04
   2670.0  5.29437e+04
   2671.0  5.30063e+04
   2672.0  5.30690e+04
   2673.0  5.31318e+04
   2674.0  5.31946e+04
   2675.0  5.32574e+04
   2676.0  5.33204e+04
   2677.0  5.33833e+04
   2678.0  5.34464e+04
   2679.0  5.35095e+04
   2680.0  5.35726e+04
   2681.0  5.36358e+04
   2682.0  5.36991e+04
   2683.0  5.37624e+04
   2684.0  5.38258e+04
   2685.0  5.38892e+04
   2686.0  5.39527e+04
   2687.0  5.40162e+04
   2688.0  5.40798e+04
   2689.0  5.41435e+04
   2690.0  5.42072e+04
   2691.0  5.42710e+04
   2692.0  5.43348e+04
   2693.0  5.43987e+04
   2694.0  5.44626e+04
   2695.0  5.45266e+04
   2696.0  5.45907e+04
   2697.0  5.46548e+04
   2698.0  5.47190e+04
   2699.0  5.47832e+04
   2700.0  5.48475e+04
   2701.0  5.49118e+04
   2702.0  5.49762e+04
   2703.0  5.50407e+04
   2704.0  5.51052e+04
   2705.0  5.51698e+04
   2706.0  5.52344e+04
   2707.0  5.52991e+04
   2708.0  5.53638e+04
   2709.0  5.54286e+04
   2710.0  5.54935e+04
   2711.0  5.55584e+04
   2712.0  5.56234e+04
   2713.0  5.56884e+04
   2714.0  5.57535e+04
   2715.0  5.58187e+04
   2716.0  5.58839e+04
   2717.0  5.59491e+04
   2718.0  5.60145e+04
   2719.0  5.60798e+04
   2720.0  5.61453e+04
   2721.0  5.62108e+04
   2722.0  5.62763e+04
   2723.0  5.63419e+04
   2724.0  5.64076e+04
   2725.0  5.64733e+04
   2726.0  5.65391e+04
   2727.0  5.66050e+04
   2728.0  5.66709e+04
   2729.0  5.67368e+04
   2730.0  5.68028e+04
   2731.0  5.68689e+04
   2732.0  5.69351e+04
   2733.0  5.70012e+04
   2734.0  5.70675e+04
   2735.0  5.71338e+04
   2736.0  5.72002e+04
   2737.0  5.72666e+04
   2738.0  5.73331e+04
   2739.0  5.73996e+04
   2740.0  5.74662e+04
   2741.0  5.75329e+04
   2742.0  5.75996e+04
   2743.0  5.76664e+04
   2744.0  5.77332e+04
   2745.0  5.78001e+04
   2746.0  5.78671e+04
   2747.0  5.79341e+04
   2748.0  5.80012e+04
   2749.0  5.80683e+04
   2750.0  5.81355e+04
   2751.0  5.82027e+04
   2752.0  5.82700e+04
   2753.0  5.83374e+04
   2754.0  5.84048e+04
   2755.0  5.84723e+04
   2756.0  5.85398e+04
   2757.0  5.86074e+04
   2758.0  5.86751e+04
   2759.0  5.87428e+04
   2760.0  5.88106e+04
   2761.0  5.88784e+04
   2762.0  5.89463e+04
   2763.0  5.90143e+04
   2764.0  5.90823e+04
   2765.0  5.91504e+04
   2766.0  5.92185e+04
   2767.0  5.92867e+04
   2768.0  5.93549e+04
   2769.0  5.94232e+04
   2770.0  5.94916e+04
   2771.0  5.95600e+04
   2772.0  5.96285e+04
   2773.0  5.96971e+04
   2774.0  5.97657e+04
   2775.0  5.98343e+04
   2776.0  5.99031e+04
   2777.0  5.99719e+04
   2778.0  6.00407e+04
   2779.0  6.01096e+04
   2780.0  6.01786e+04
   2781.0  6.02476e+04
   2782.0  6.03167e+04
   2783.0  6.03858e+04
   2784.0  6.04550e+04
   2785.0  6.05243e+04
   2786.0  6.05936e+04
   2787.0  6.06630e+04
   2788.0  6.07324e+04
   2789.0  6.08019e+04
   2790.0  6.08715e+04
   2791.0  6.09411e+04
   2792.0  6.10108e+04
   2793.0  6.10805e+04
   2794.0  6.11503e+04
   2795.0  6.12202e+04
   2796.0  6.12901e+04
   2797.0  6.13601e+04
   2798.0  6.14301e+04
   2799.0  6.15002e+04
   2800.0  6.15704e+04
   2801.0  6.16406e+04
   2802.0  6.17109e+04
   2803.0  6.17813e+04
   2804.0  6.18517e+04
   2805.0  6.19221e+04
   2806.0  6.19926e+04
   2807.0  6.20632e+04
   2808.0  6.21339e+04
   2809.0  6.22046e+04
   2810.0  6.22753e+04
   2811.0  6.23462e+04
   2812.0  6.24171e+04
   2813.0  6.24880e+04
   2814.0  6.25590e+04
   2815.0  6.26301e+04
   2816.0  6.27012e+04
   2817.0  6.27724e+04
   2818.0  6.28436e+04
   2819.0  6.29150e+04
   2820.0  6.29863e+04
   2821.0  6.30578e+04
   2822.0  6.31293e+04
   2823.0  6.32008e+04
   2824.0  6.32724e+04
   2825.0  6.33441e+04
   2826.0  6.34158e+04
   2827.0  6.34876e+04
   2828.0  6.35595e+04
   2829.0  6.36314e+04
   2830.0  6.37034e+04
   2831.0  6.37754e+04
   2832.0  6.38475e+04
   2833.0  6.39197e+04
   2834.0  6.39919e+04
   2835.0  6.40642e+04
   2836.0  6.41366e+04
   2837.0  6.42090e+04
   2838.0  6.42814e+04
   2839.0  6.43540e+04
   2840.0  6.44266e+04
   2841.0  6.44992e+04
   2842.0  6.45719e+04
   2843.0  6.46447e+04
   2844.0  6.47176e+04
   2845.0  6.47905e+04
   2846.0  6.48634e+04
   2847.0  6.49364e+04
   2848.0  6.50095e+04
   2849.0  6.50827e+04
   2850.0  6.51559e+04
   2851.0  6.52292e+04
   2852.0  6.53025e+04
   2853.0  6.53759e+04
   2854.0  6.54493e+04
   2855.0  6.55229e+04
   2856.0  6.55964e+04
   2857.0  6.56701e+04
   2858.0  6.57438e+04
   2859.0  6.58175e+04
   2860.0  6.58914e+04
   2861.0  6.59652e+04
   2862.0  6.60392e+04
   2863.0  6.61132e+04
   2864.0  6.61873e+04
   2865.0  6.62614e+04
   2866.0  6.63356e+04
   2867.0  6.64099e+04
   2868.0  6.64842e+04
   2869.0  6.65586e+04
   2870.0  6.66330e+04
   2871.0  6.67075e+04
   2872.0  6.67821e+04
   2873.0  6.68567e+04
   2874.0  6.69314e+04
   2875.0  6.70062e+04
   2876.0  6.70810e+04
   2877.0  6.71559e+04
   2878.0  6.72308e+04
   2879.0  6.73058e+04
   2880.0  6.73809e+04
   2881.0  6.74560e+04
   2882.0  6.75312e+04
   2883.0  6.76065e+04
   2884.0  6.76818e+04
   2885.0  6.77572e+04
   2886.0  6.78326e+04
   2887.0  6.79082e+04
   2888.0  6.79837e+04
   2889.0  6.80594e+04
   2890.0  6.81350e+04
   2891.0  6.82108e+04
   2892.0  6.82866e+04
   2893.0  6.83625e+04
   2894.0  6.84385e+04
   2895.0  6.85145e+04
   2896.0  6.85905e+04
   2897.0  6.86667e+04
   2898.0  6.87429e+04
   2899.0  6.88191e+04
   2900.0  6.88955e+04
   2901.0  6.89718e+04
   2902.0  6.90483e+04
   2903.0  6.91248e+04
   2904.0  6.92014e+04
   2905.0  6.92780e+04
   2906.0  6.93547e+04
   2907.0  6.94315e+04
   2908.0  6.95083e+04
   2909.0  6.95852e+04
   2910.0  6.96622e+04
   2911.0  6.97392e+04
   2912.0  6.98163e+04
   2913.0  6.98934e+04
   2914.0  6.99706e+04
   2915.0  7.00479e+04
   2916.0  7.01252e+04
   2917.0  7.02026e+04
   2918.0  7.02801e+04
   2919.0  7.03576e+04
   2920.0  7.04352e+04
   2921.0  7.05129e+04
   2922.0  7.05906e+04
   2923.0  7.06684e+04
   2924.0  7.07462e+04
   2925.0  7.08241e+04
   2926.0  7.09021e+04
   2927.0  7.09801e+04
   2928.0  7.10582e+04
   2929.0  7.11364e+04
   2930.0  7.12146e+04
   2931.0  7.12929e+04
   2932.0  7.13713e+04
   2933.0  7.14497e+04
   2934.0  7.15282e+04
   2935.0  7.16067e+04
   2936.0  7.16853e+04
   2937.0  7.17640e+04
   2938.0  7.18427e+04
   2939.0  7.19215e+04
   2940.0  7.20004e+04
   2941.0  7.20793e+04
   2942.0  7.21583e+04
   2943.0  7.22374e+04
   2944.0  7.23165e+04
   2945.0  7.23957e+04
   2946.0  7.24749e+04
   2947.0  7.25543e+04
   2948.0  7.26336e+04
   2949.0  7.27131e+04
   2950.0  7.27926e+04
   2951.0  7.28722e+04
   2952.0  7.29518e+04
   2953.0  7.30315e+04
   2954.0  7.31113e+04
   2955.0  7.31911e+04
   2956.0  7.32710e+04
   2957.0  7.33509e+04
   2958.0  7.34310e+04
   2959.0  7.35111e+04
   2960.0  7.35912e+04
   2961.0  7.36714e+04
   2962.0  7.37517e+04
   2963.0  7.38321e+04
   2964.0  7.39125e+04
   2965.0  7.39930e+04
   2966.0  7.40735e+04
   2967.0  7.41541e+04
   2968.0  7.42348e+04
   2969.0  7.43155e+04
   2970.0  7.43963e+04
   2971.0  7.44772e+04
   2972.0  7.45581e+04
   2973.0  7.46391e+04
   2974.0  7.47202e+04
   2975.0  7.48013e+04
   2976.0  7.48825e+04
   2977.0  7.49637e+04
   2978.0  7.50451e+04
   2979.0  7.51264e+04
   2980.0  7.52079e+04
   2981.0  7.52894e+04
   2982.0  7.53710e+04
   2983.0  7.54526e+04
   2984.0  7.55344e+04
   2985.0  7.56161e+04
   2986.0  7.56980e+04
   2987.0  7.57799e+04
   2988.0  7.58619e+04
   2989.0  7.59439e+04
   2990.0  7.60260e+04
   2991.0  7.61082e+04
   2992.0  7.61904e+04
   2993.0  7.62727e+04
   2994.0  7.63551e+04
   2995.0  7.64375e+04
   2996.0  7.65200e+04
   2997.0  7.66026e+04
   2998.0  7.66852e+04
   2999.0  7.67679e+04
   3000.0  7.68506e+04
